From Roush et al. (2007), J. Geophys. Res.-Planets
average of Long et al. crystal values
Frequency   Wavelength
 (cm-1)     microns        n           k
4000.0000	2.5000	1.4756	1.8037e-3
3996.0000	2.5025	1.4754	1.8314e-3
3992.0000	2.5050	1.4751	1.8598e-3
3988.0000	2.5075	1.4748	1.8888e-3
3984.0000	2.5100	1.4745	1.9187e-3
3980.0000	2.5126	1.4742	1.9492e-3
3976.0000	2.5151	1.4739	1.9806e-3
3972.0000	2.5176	1.4736	2.0127e-3
3968.0000	2.5202	1.4733	2.0457e-3
3964.0000	2.5227	1.4730	2.0795e-3
3960.0000	2.5253	1.4727	2.1143e-3
3956.0000	2.5278	1.4723	2.1500e-3
3952.0000	2.5304	1.4720	2.1865e-3
3948.0000	2.5329	1.4717	2.2242e-3
3944.0000	2.5355	1.4713	2.2628e-3
3940.0000	2.5381	1.4710	2.3025e-3
3936.0000	2.5407	1.4706	2.3434e-3
3932.0000	2.5432	1.4703	2.3854e-3
3928.0000	2.5458	1.4699	2.4285e-3
3924.0000	2.5484	1.4696	2.4730e-3
3920.0000	2.5510	1.4691	2.5187e-3
3916.0000	2.5536	1.4688	2.5658e-3
3912.0000	2.5562	1.4684	2.6142e-3
3908.0000	2.5589	1.4680	2.6642e-3
3904.0000	2.5615	1.4676	2.7156e-3
3900.0000	2.5641	1.4672	2.7687e-3
3896.0000	2.5667	1.4667	2.8234e-3
3892.0000	2.5694	1.4663	2.8798e-3
3888.0000	2.5720	1.4659	2.9380e-3
3884.0000	2.5747	1.4654	2.9981e-3
3880.0000	2.5773	1.4650	3.0601e-3
3876.0000	2.5800	1.4645	3.1242e-3
3872.0000	2.5826	1.4640	3.1904e-3
3868.0000	2.5853	1.4635	3.2589e-3
3864.0000	2.5880	1.4630	3.3297e-3
3860.0000	2.5907	1.4625	3.4029e-3
3856.0000	2.5934	1.4621	3.4788e-3
3852.0000	2.5961	1.4615	3.5573e-3
3848.0000	2.5988	1.4610	3.6386e-3
3844.0000	2.6015	1.4604	3.7229e-3
3840.0000	2.6042	1.4598	3.8103e-3
3836.0000	2.6069	1.4593	3.9010e-3
3832.0000	2.6096	1.4587	3.9951e-3
3828.0000	2.6123	1.4581	4.0929e-3
3824.0000	2.6151	1.4575	4.1944e-3
3820.0000	2.6178	1.4568	4.3000e-3
3816.0000	2.6205	1.4562	4.4098e-3
3812.0000	2.6233	1.4555	4.5241e-3
3808.0000	2.6261	1.4548	4.6431e-3
3804.0000	2.6288	1.4542	4.7798e-3
3800.0000	2.6316	1.4535	4.9070e-3
3796.0000	2.6344	1.4527	5.0351e-3
3792.0000	2.6371	1.4519	5.1640e-3
3788.0000	2.6399	1.4512	5.3272e-3
3784.0000	2.6427	1.4504	5.4580e-3
3780.0000	2.6455	1.4496	5.6232e-3
3776.0000	2.6483	1.4487	5.7893e-3
3772.0000	2.6511	1.4478	5.9899e-3
3768.0000	2.6539	1.4469	6.1583e-3
3764.0000	2.6567	1.4460	6.3611e-3
3760.0000	2.6596	1.4451	6.5652e-3
3756.0000	2.6624	1.4441	6.7707e-3
3752.0000	2.6652	1.4431	7.0107e-3
3748.0000	2.6681	1.4421	7.2522e-3
3744.0000	2.6709	1.4410	7.4952e-3
3740.0000	2.6738	1.4399	7.7397e-3
3736.0000	2.6767	1.4387	8.0192e-3
3732.0000	2.6795	1.4375	8.3337e-3
3728.0000	2.6824	1.4363	8.6500e-3
3724.0000	2.6853	1.4350	8.9682e-3
3720.0000	2.6882	1.4337	9.3218e-3
3716.0000	2.6911	1.4324	9.7107e-3
3712.0000	2.6940	1.4309	0.0101
3708.0000	2.6969	1.4294	0.0105
3704.0000	2.6998	1.4279	0.0110
3700.0000	2.7027	1.4263	0.0115
3696.0000	2.7056	1.4246	0.0120
3692.0000	2.7086	1.4229	0.0125
3688.0000	2.7115	1.4211	0.0131
3684.0000	2.7144	1.4192	0.0138
3680.0000	2.7174	1.4172	0.0145
3676.0000	2.7203	1.4151	0.0152
3672.0000	2.7233	1.4129	0.0160
3668.0000	2.7263	1.4106	0.0169
3664.0000	2.7293	1.4082	0.0179
3660.0000	2.7322	1.4057	0.0190
3656.0000	2.7352	1.4031	0.0201
3652.0000	2.7382	1.4003	0.0214
3648.0000	2.7412	1.3973	0.0228
3644.0000	2.7442	1.3942	0.0243
3640.0000	2.7473	1.3909	0.0260
3636.0000	2.7503	1.3874	0.0279
3632.0000	2.7533	1.3837	0.0300
3628.0000	2.7563	1.3797	0.0324
3624.0000	2.7594	1.3756	0.0351
3620.0000	2.7624	1.3711	0.0381
3616.0000	2.7655	1.3664	0.0416
3612.0000	2.7685	1.3614	0.0455
3608.0000	2.7716	1.3561	0.0501
3604.0000	2.7747	1.3504	0.0553
3600.0000	2.7778	1.3446	0.0614
3596.0000	2.7809	1.3384	0.0686
3592.0000	2.7840	1.3321	0.0769
3588.0000	2.7871	1.3258	0.0867
3584.0000	2.7902	1.3197	0.0983
3580.0000	2.7933	1.3141	0.1118
3576.0000	2.7964	1.3095	0.1276
3572.0000	2.7996	1.3066	0.1457
3568.0000	2.8027	1.3061	0.1662
3564.0000	2.8058	1.3090	0.1887
3560.0000	2.8090	1.3160	0.2126
3556.0000	2.8121	1.3281	0.2370
3552.0000	2.8153	1.3458	0.2605
3548.0000	2.8185	1.3693	0.2816
3544.0000	2.8217	1.3984	0.2982
3540.0000	2.8249	1.4321	0.3083
3536.0000	2.8281	1.4682	0.3102
3532.0000	2.8313	1.5037	0.3028
3528.0000	2.8345	1.5353	0.2869
3524.0000	2.8377	1.5603	0.2647
3520.0000	2.8409	1.5775	0.2392
3516.0000	2.8441	1.5872	0.2133
3512.0000	2.8474	1.5905	0.1891
3508.0000	2.8506	1.5892	0.1677
3504.0000	2.8539	1.5847	0.1494
3500.0000	2.8571	1.5781	0.1343
3496.0000	2.8604	1.5702	0.1221
3492.0000	2.8637	1.5615	0.1124
3488.0000	2.8670	1.5524	0.1049
3484.0000	2.8703	1.5431	0.0994
3480.0000	2.8736	1.5338	0.0957
3476.0000	2.8769	1.5245	0.0936
3472.0000	2.8802	1.5152	0.0931
3468.0000	2.8835	1.5061	0.0941
3464.0000	2.8868	1.4971	0.0966
3460.0000	2.8902	1.4884	0.1009
3456.0000	2.8935	1.4800	0.1069
3452.0000	2.8969	1.4723	0.1149
3448.0000	2.9002	1.4654	0.1250
3444.0000	2.9036	1.4601	0.1374
3440.0000	2.9070	1.4567	0.1522
3436.0000	2.9104	1.4563	0.1691
3432.0000	2.9138	1.4596	0.1878
3428.0000	2.9172	1.4676	0.2073
3424.0000	2.9206	1.4808	0.2264
3420.0000	2.9240	1.4996	0.2436
3416.0000	2.9274	1.5237	0.2568
3412.0000	2.9308	1.5519	0.2642
3408.0000	2.9343	1.5823	0.2643
3404.0000	2.9377	1.6121	0.2564
3400.0000	2.9412	1.6384	0.2414
3396.0000	2.9446	1.6592	0.2212
3392.0000	2.9481	1.6737	0.1985
3388.0000	2.9516	1.6820	0.1755
3384.0000	2.9551	1.6855	0.1538
3380.0000	2.9586	1.6853	0.1343
3376.0000	2.9621	1.6826	0.1173
3372.0000	2.9656	1.6783	0.1028
3368.0000	2.9691	1.6732	0.0904
3364.0000	2.9727	1.6676	0.0799
3360.0000	2.9762	1.6618	0.0709
3356.0000	2.9797	1.6562	0.0634
3352.0000	2.9833	1.6506	0.0569
3348.0000	2.9869	1.6452	0.0513
3344.0000	2.9904	1.6402	0.0466
3340.0000	2.9940	1.6353	0.0424
3336.0000	2.9976	1.6307	0.0388
3332.0000	3.0012	1.6264	0.0356
3328.0000	3.0048	1.6224	0.0328
3324.0000	3.0084	1.6185	0.0304
3320.0000	3.0120	1.6149	0.0282
3316.0000	3.0157	1.6115	0.0262
3312.0000	3.0193	1.6082	0.0245
3308.0000	3.0230	1.6052	0.0229
3304.0000	3.0266	1.6023	0.0215
3300.0000	3.0303	1.5995	0.0202
3296.0000	3.0340	1.5969	0.0190
3292.0000	3.0377	1.5945	0.0179
3288.0000	3.0414	1.5921	0.0170
3284.0000	3.0451	1.5899	0.0161
3280.0000	3.0488	1.5877	0.0152
3276.0000	3.0525	1.5857	0.0145
3272.0000	3.0562	1.5837	0.0138
3268.0000	3.0600	1.5819	0.0131
3264.0000	3.0637	1.5801	0.0125
3260.0000	3.0675	1.5784	0.0120
3256.0000	3.0713	1.5767	0.0115
3252.0000	3.0750	1.5751	0.0110
3248.0000	3.0788	1.5736	0.0105
3244.0000	3.0826	1.5721	0.0101
3240.0000	3.0864	1.5707	9.7088e-3
3236.0000	3.0902	1.5694	9.3415e-3
3232.0000	3.0941	1.5681	8.9767e-3
3228.0000	3.0979	1.5668	8.6478e-3
3224.0000	3.1017	1.5656	8.3546e-3
3220.0000	3.1056	1.5644	8.0636e-3
3216.0000	3.1095	1.5632	7.7748e-3
3212.0000	3.1133	1.5621	7.5214e-3
3208.0000	3.1172	1.5610	7.2699e-3
3204.0000	3.1211	1.5600	7.0536e-3
3200.0000	3.1250	1.5590	6.8058e-3
3196.0000	3.1289	1.5580	6.5930e-3
3192.0000	3.1328	1.5571	6.4150e-3
3188.0000	3.1368	1.5561	6.2054e-3
3184.0000	3.1407	1.5552	6.0305e-3
3180.0000	3.1447	1.5543	5.8570e-3
3176.0000	3.1486	1.5535	5.6849e-3
3172.0000	3.1526	1.5527	5.5474e-3
3168.0000	3.1566	1.5519	5.3778e-3
3164.0000	3.1606	1.5511	5.2427e-3
3160.0000	3.1646	1.5503	5.1057e-3
3156.0000	3.1686	1.5496	4.9738e-3
3152.0000	3.1726	1.5489	4.8475e-3
3148.0000	3.1766	1.5481	4.7265e-3
3144.0000	3.1807	1.5474	4.6103e-3
3140.0000	3.1847	1.5468	4.4989e-3
3136.0000	3.1888	1.5461	4.3920e-3
3132.0000	3.1928	1.5454	4.2892e-3
3128.0000	3.1969	1.5448	4.1904e-3
3124.0000	3.2010	1.5442	4.0954e-3
3120.0000	3.2051	1.5436	4.0040e-3
3116.0000	3.2092	1.5429	3.9160e-3
3112.0000	3.2134	1.5424	3.8312e-3
3108.0000	3.2175	1.5418	3.7496e-3
3104.0000	3.2216	1.5413	3.6708e-3
3100.0000	3.2258	1.5407	3.5949e-3
3096.0000	3.2300	1.5402	3.5216e-3
3092.0000	3.2342	1.5396	3.4509e-3
3088.0000	3.2383	1.5391	3.3825e-3
3084.0000	3.2425	1.5386	3.3165e-3
3080.0000	3.2468	1.5381	3.2528e-3
3076.0000	3.2510	1.5376	3.1911e-3
3072.0000	3.2552	1.5371	3.1315e-3
3068.0000	3.2595	1.5366	3.0738e-3
3064.0000	3.2637	1.5362	3.0180e-3
3060.0000	3.2680	1.5357	2.9640e-3
3056.0000	3.2723	1.5352	2.9116e-3
3052.0000	3.2765	1.5348	2.8609e-3
3048.0000	3.2808	1.5343	2.8118e-3
3044.0000	3.2852	1.5339	2.7641e-3
3040.0000	3.2895	1.5335	2.7180e-3
3036.0000	3.2938	1.5331	2.6732e-3
3032.0000	3.2982	1.5327	2.6297e-3
3028.0000	3.3025	1.5322	2.5875e-3
3024.0000	3.3069	1.5319	2.5466e-3
3020.0000	3.3113	1.5315	2.5069e-3
3016.0000	3.3156	1.5311	2.4683e-3
3012.0000	3.3201	1.5307	2.4308e-3
3008.0000	3.3245	1.5303	2.3944e-3
3004.0000	3.3289	1.5299	2.3590e-3
3000.0000	3.3333	1.5295	2.3246e-3
2996.0000	3.3378	1.5292	2.2911e-3
2992.0000	3.3422	1.5288	2.2585e-3
2988.0000	3.3467	1.5285	2.2269e-3
2984.0000	3.3512	1.5281	2.1961e-3
2980.0000	3.3557	1.5278	2.1662e-3
2976.0000	3.3602	1.5274	2.1370e-3
2972.0000	3.3647	1.5271	2.1086e-3
2968.0000	3.3693	1.5267	2.0810e-3
2964.0000	3.3738	1.5264	2.0541e-3
2960.0000	3.3784	1.5261	2.0279e-3
2956.0000	3.3829	1.5258	2.0024e-3
2952.0000	3.3875	1.5255	1.9775e-3
2948.0000	3.3921	1.5251	1.9532e-3
2944.0000	3.3967	1.5248	1.9296e-3
2940.0000	3.4014	1.5245	1.9066e-3
2936.0000	3.4060	1.5242	1.8841e-3
2932.0000	3.4106	1.5239	1.8623e-3
2928.0000	3.4153	1.5236	1.8409e-3
2924.0000	3.4200	1.5233	1.8201e-3
2920.0000	3.4247	1.5230	1.7998e-3
2916.0000	3.4294	1.5227	1.7800e-3
2912.0000	3.4341	1.5224	1.7607e-3
2908.0000	3.4388	1.5221	1.7419e-3
2904.0000	3.4435	1.5218	1.7235e-3
2900.0000	3.4483	1.5215	1.7055e-3
2896.0000	3.4530	1.5213	1.6880e-3
2892.0000	3.4578	1.5210	1.6709e-3
2888.0000	3.4626	1.5207	1.6542e-3
2884.0000	3.4674	1.5204	1.6379e-3
2880.0000	3.4722	1.5202	1.6220e-3
2876.0000	3.4771	1.5199	1.6065e-3
2872.0000	3.4819	1.5196	1.5913e-3
2868.0000	3.4868	1.5193	1.5765e-3
2864.0000	3.4916	1.5191	1.5620e-3
2860.0000	3.4965	1.5188	1.5479e-3
2856.0000	3.5014	1.5185	1.5341e-3
2852.0000	3.5063	1.5183	1.5206e-3
2848.0000	3.5112	1.5180	1.5074e-3
2844.0000	3.5162	1.5178	1.4946e-3
2840.0000	3.5211	1.5175	1.4820e-3
2836.0000	3.5261	1.5173	1.4697e-3
2832.0000	3.5311	1.5170	1.4577e-3
2828.0000	3.5361	1.5168	1.4460e-3
2824.0000	3.5411	1.5165	1.4345e-3
2820.0000	3.5461	1.5163	1.4233e-3
2816.0000	3.5511	1.5160	1.4124e-3
2812.0000	3.5562	1.5158	1.4017e-3
2808.0000	3.5613	1.5155	1.3913e-3
2804.0000	3.5663	1.5153	1.3811e-3
2800.0000	3.5714	1.5151	1.3711e-3
2796.0000	3.5765	1.5148	1.3614e-3
2792.0000	3.5817	1.5146	1.3519e-3
2788.0000	3.5868	1.5143	1.3426e-3
2784.0000	3.5920	1.5141	1.3335e-3
2780.0000	3.5971	1.5139	1.3246e-3
2776.0000	3.6023	1.5137	1.3159e-3
2772.0000	3.6075	1.5134	1.3075e-3
2768.0000	3.6127	1.5132	1.2992e-3
2764.0000	3.6179	1.5130	1.2911e-3
2760.0000	3.6232	1.5127	1.2832e-3
2756.0000	3.6284	1.5125	1.2755e-3
2752.0000	3.6337	1.5122	1.2680e-3
2748.0000	3.6390	1.5120	1.2606e-3
2744.0000	3.6443	1.5118	1.2534e-3
2740.0000	3.6496	1.5116	1.2464e-3
2736.0000	3.6550	1.5114	1.2396e-3
2732.0000	3.6603	1.5111	1.2329e-3
2728.0000	3.6657	1.5109	1.2264e-3
2724.0000	3.6711	1.5107	1.2200e-3
2720.0000	3.6765	1.5105	1.2138e-3
2716.0000	3.6819	1.5103	1.2078e-3
2712.0000	3.6873	1.5100	1.2019e-3
2708.0000	3.6928	1.5098	1.1961e-3
2704.0000	3.6982	1.5096	1.1905e-3
2700.0000	3.7037	1.5093	1.1850e-3
2696.0000	3.7092	1.5092	1.1797e-3
2692.0000	3.7147	1.5089	1.1744e-3
2688.0000	3.7202	1.5087	1.1694e-3
2684.0000	3.7258	1.5085	1.1644e-3
2680.0000	3.7313	1.5083	1.1596e-3
2676.0000	3.7369	1.5081	1.1549e-3
2672.0000	3.7425	1.5078	1.1504e-3
2668.0000	3.7481	1.5076	1.1460e-3
2664.0000	3.7538	1.5074	1.1416e-3
2660.0000	3.7594	1.5072	1.1374e-3
2656.0000	3.7651	1.5070	1.1333e-3
2652.0000	3.7707	1.5068	1.1294e-3
2648.0000	3.7764	1.5065	1.1255e-3
2644.0000	3.7821	1.5063	1.1218e-3
2640.0000	3.7879	1.5061	1.1182e-3
2636.0000	3.7936	1.5059	1.1147e-3
2632.0000	3.7994	1.5057	1.1112e-3
2628.0000	3.8052	1.5055	1.1079e-3
2624.0000	3.8110	1.5052	1.1047e-3
2620.0000	3.8168	1.5050	1.1016e-3
2616.0000	3.8226	1.5049	1.0986e-3
2612.0000	3.8285	1.5046	1.0957e-3
2608.0000	3.8344	1.5044	1.0929e-3
2604.0000	3.8402	1.5042	1.0902e-3
2600.0000	3.8462	1.5040	1.0876e-3
2596.0000	3.8521	1.5038	1.0851e-3
2592.0000	3.8580	1.5036	1.0827e-3
2588.0000	3.8640	1.5033	1.0804e-3
2584.0000	3.8700	1.5031	1.0781e-3
2580.0000	3.8760	1.5030	1.0760e-3
2576.0000	3.8820	1.5027	1.0740e-3
2572.0000	3.8880	1.5025	1.0720e-3
2568.0000	3.8941	1.5023	1.0701e-3
2564.0000	3.9002	1.5021	1.0683e-3
2560.0000	3.9063	1.5018	1.0666e-3
2556.0000	3.9124	1.5016	1.0650e-3
2552.0000	3.9185	1.5015	1.0635e-3
2548.0000	3.9246	1.5012	1.0620e-3
2544.0000	3.9308	1.5010	1.0607e-3
2540.0000	3.9370	1.5008	1.0594e-3
2536.0000	3.9432	1.5006	1.0582e-3
2532.0000	3.9494	1.5003	1.0571e-3
2528.0000	3.9557	1.5002	1.0560e-3
2524.0000	3.9620	1.4999	1.0551e-3
2520.0000	3.9683	1.4997	1.0542e-3
2516.0000	3.9746	1.4995	1.0534e-3
2512.0000	3.9809	1.4993	1.0526e-3
2508.0000	3.9872	1.4991	1.0520e-3
2504.0000	3.9936	1.4989	1.0514e-3
2500.0000	4.0000	1.4986	1.0509e-3
2496.0000	4.0064	1.4984	1.0505e-3
2492.0000	4.0128	1.4982	1.0502e-3
2488.0000	4.0193	1.4980	1.0499e-3
2484.0000	4.0258	1.4978	1.0497e-3
2480.0000	4.0323	1.4976	1.0496e-3
2476.0000	4.0388	1.4973	1.0495e-3
2472.0000	4.0453	1.4971	1.0495e-3
2468.0000	4.0519	1.4969	1.0496e-3
2464.0000	4.0584	1.4967	1.0498e-3
2460.0000	4.0650	1.4964	1.0500e-3
2456.0000	4.0717	1.4962	1.0503e-3
2452.0000	4.0783	1.4960	1.0507e-3
2448.0000	4.0850	1.4958	1.0512e-3
2444.0000	4.0917	1.4955	1.0517e-3
2440.0000	4.0984	1.4953	1.0523e-3
2436.0000	4.1051	1.4951	1.0529e-3
2432.0000	4.1118	1.4949	1.0537e-3
2428.0000	4.1186	1.4946	1.0545e-3
2424.0000	4.1254	1.4944	1.0553e-3
2420.0000	4.1322	1.4942	1.0563e-3
2416.0000	4.1391	1.4940	1.0573e-3
2412.0000	4.1459	1.4937	1.0584e-3
2408.0000	4.1528	1.4935	1.0595e-3
2404.0000	4.1597	1.4933	1.0607e-3
2400.0000	4.1667	1.4930	1.0620e-3
2396.0000	4.1736	1.4928	1.0634e-3
2392.0000	4.1806	1.4926	1.0648e-3
2388.0000	4.1876	1.4923	1.0663e-3
2384.0000	4.1946	1.4921	1.0679e-3
2380.0000	4.2017	1.4919	1.0696e-3
2376.0000	4.2088	1.4916	1.0713e-3
2372.0000	4.2159	1.4914	1.0730e-3
2368.0000	4.2230	1.4912	1.0749e-3
2364.0000	4.2301	1.4909	1.0768e-3
2360.0000	4.2373	1.4907	1.0787e-3
2356.0000	4.2445	1.4904	1.0808e-3
2352.0000	4.2517	1.4902	1.0830e-3
2348.0000	4.2589	1.4900	1.0852e-3
2344.0000	4.2662	1.4897	1.0874e-3
2340.0000	4.2735	1.4894	1.0898e-3
2336.0000	4.2808	1.4892	1.0922e-3
2332.0000	4.2882	1.4890	1.0947e-3
2328.0000	4.2955	1.4887	1.0972e-3
2324.0000	4.3029	1.4884	1.0998e-3
2320.0000	4.3103	1.4882	1.1026e-3
2316.0000	4.3178	1.4880	1.1053e-3
2312.0000	4.3253	1.4877	1.1082e-3
2308.0000	4.3328	1.4874	1.1111e-3
2304.0000	4.3403	1.4872	1.1141e-3
2300.0000	4.3478	1.4870	1.1171e-3
2296.0000	4.3554	1.4867	1.1203e-3
2292.0000	4.3630	1.4864	1.1235e-3
2288.0000	4.3706	1.4861	1.1268e-3
2284.0000	4.3783	1.4859	1.1302e-3
2280.0000	4.3860	1.4857	1.1336e-3
2276.0000	4.3937	1.4854	1.1371e-3
2272.0000	4.4014	1.4851	1.1407e-3
2268.0000	4.4092	1.4848	1.1444e-3
2264.0000	4.4170	1.4846	1.1482e-3
2260.0000	4.4248	1.4843	1.1520e-3
2256.0000	4.4326	1.4840	1.1560e-3
2252.0000	4.4405	1.4837	1.1600e-3
2248.0000	4.4484	1.4835	1.1640e-3
2244.0000	4.4563	1.4832	1.1682e-3
2240.0000	4.4643	1.4829	1.1724e-3
2236.0000	4.4723	1.4826	1.1768e-3
2232.0000	4.4803	1.4823	1.1812e-3
2228.0000	4.4883	1.4821	1.1857e-3
2224.0000	4.4964	1.4818	1.1903e-3
2220.0000	4.5045	1.4815	1.1950e-3
2216.0000	4.5126	1.4812	1.1998e-3
2212.0000	4.5208	1.4809	1.2046e-3
2208.0000	4.5290	1.4806	1.2096e-3
2204.0000	4.5372	1.4803	1.2147e-3
2200.0000	4.5455	1.4800	1.2198e-3
2196.0000	4.5537	1.4797	1.2250e-3
2192.0000	4.5620	1.4794	1.2304e-3
2188.0000	4.5704	1.4791	1.2358e-3
2184.0000	4.5788	1.4788	1.2413e-3
2180.0000	4.5872	1.4785	1.2470e-3
2176.0000	4.5956	1.4782	1.2527e-3
2172.0000	4.6041	1.4779	1.2585e-3
2168.0000	4.6125	1.4776	1.2645e-3
2164.0000	4.6211	1.4773	1.2705e-3
2160.0000	4.6296	1.4769	1.2766e-3
2156.0000	4.6382	1.4766	1.2829e-3
2152.0000	4.6468	1.4763	1.2893e-3
2148.0000	4.6555	1.4760	1.2958e-3
2144.0000	4.6642	1.4757	1.3024e-3
2140.0000	4.6729	1.4753	1.3091e-3
2136.0000	4.6816	1.4750	1.3159e-3
2132.0000	4.6904	1.4746	1.3229e-3
2128.0000	4.6992	1.4743	1.3300e-3
2124.0000	4.7081	1.4740	1.3372e-3
2120.0000	4.7170	1.4736	1.3445e-3
2116.0000	4.7259	1.4733	1.3520e-3
2112.0000	4.7348	1.4730	1.3596e-3
2108.0000	4.7438	1.4726	1.3673e-3
2104.0000	4.7529	1.4722	1.3752e-3
2100.0000	4.7619	1.4719	1.3832e-3
2096.0000	4.7710	1.4716	1.3913e-3
2092.0000	4.7801	1.4712	1.3997e-3
2088.0000	4.7893	1.4708	1.4081e-3
2084.0000	4.7985	1.4704	1.4167e-3
2080.0000	4.8077	1.4701	1.4255e-3
2076.0000	4.8170	1.4697	1.4344e-3
2072.0000	4.8263	1.4693	1.4435e-3
2068.0000	4.8356	1.4690	1.4527e-3
2064.0000	4.8450	1.4686	1.4621e-3
2060.0000	4.8544	1.4682	1.4718e-3
2056.0000	4.8638	1.4678	1.4815e-3
2052.0000	4.8733	1.4674	1.4915e-3
2048.0000	4.8828	1.4670	1.5017e-3
2044.0000	4.8924	1.4666	1.5120e-3
2040.0000	4.9020	1.4662	1.5226e-3
2036.0000	4.9116	1.4658	1.5333e-3
2032.0000	4.9213	1.4654	1.5443e-3
2028.0000	4.9310	1.4649	1.5555e-3
2024.0000	4.9407	1.4645	1.5669e-3
2020.0000	4.9505	1.4641	1.5785e-3
2016.0000	4.9603	1.4637	1.5905e-3
2012.0000	4.9702	1.4632	1.6026e-3
2008.0000	4.9801	1.4628	1.6150e-3
2004.0000	4.9900	1.4624	1.6276e-3
2000.0000	5.0000	1.4619	1.6406e-3
1998.0000	5.0050	1.4617	1.6471e-3
1996.0000	5.0100	1.4614	1.6538e-3
1994.0000	5.0150	1.4612	1.6605e-3
1992.0000	5.0201	1.4610	1.6672e-3
1990.0000	5.0251	1.4607	1.6741e-3
1988.0000	5.0302	1.4605	1.6810e-3
1986.0000	5.0352	1.4603	1.6881e-3
1984.0000	5.0403	1.4601	1.6951e-3
1982.0000	5.0454	1.4598	1.7023e-3
1980.0000	5.0505	1.4596	1.7095e-3
1978.0000	5.0556	1.4593	1.7169e-3
1976.0000	5.0607	1.4591	1.7243e-3
1974.0000	5.0659	1.4588	1.7318e-3
1972.0000	5.0710	1.4586	1.7394e-3
1970.0000	5.0761	1.4584	1.7471e-3
1968.0000	5.0813	1.4581	1.7549e-3
1966.0000	5.0865	1.4579	1.7627e-3
1964.0000	5.0916	1.4576	1.7707e-3
1962.0000	5.0968	1.4574	1.7788e-3
1960.0000	5.1020	1.4571	1.7869e-3
1958.0000	5.1073	1.4569	1.7952e-3
1956.0000	5.1125	1.4566	1.8036e-3
1954.0000	5.1177	1.4564	1.8121e-3
1952.0000	5.1230	1.4561	1.8206e-3
1950.0000	5.1282	1.4559	1.8293e-3
1948.0000	5.1335	1.4556	1.8382e-3
1946.0000	5.1387	1.4553	1.8471e-3
1944.0000	5.1440	1.4550	1.8561e-3
1942.0000	5.1493	1.4548	1.8653e-3
1940.0000	5.1546	1.4545	1.8746e-3
1938.0000	5.1600	1.4542	1.8840e-3
1936.0000	5.1653	1.4540	1.8936e-3
1934.0000	5.1706	1.4537	1.9033e-3
1932.0000	5.1760	1.4534	1.9131e-3
1930.0000	5.1813	1.4531	1.9231e-3
1928.0000	5.1867	1.4528	1.9332e-3
1926.0000	5.1921	1.4526	1.9434e-3
1924.0000	5.1975	1.4523	1.9538e-3
1922.0000	5.2029	1.4520	1.9644e-3
1920.0000	5.2083	1.4517	1.9751e-3
1918.0000	5.2138	1.4514	1.9860e-3
1916.0000	5.2192	1.4512	1.9971e-3
1914.0000	5.2247	1.4508	2.0083e-3
1912.0000	5.2301	1.4505	2.0197e-3
1910.0000	5.2356	1.4502	2.0313e-3
1908.0000	5.2411	1.4500	2.0431e-3
1906.0000	5.2466	1.4496	2.0550e-3
1904.0000	5.2521	1.4493	2.0672e-3
1902.0000	5.2576	1.4490	2.0796e-3
1900.0000	5.2632	1.4487	2.0921e-3
1898.0000	5.2687	1.4484	2.1049e-3
1896.0000	5.2743	1.4481	2.1179e-3
1894.0000	5.2798	1.4478	2.1312e-3
1892.0000	5.2854	1.4475	2.1447e-3
1890.0000	5.2910	1.4471	2.1584e-3
1888.0000	5.2966	1.4468	2.1724e-3
1886.0000	5.3022	1.4465	2.1867e-3
1884.0000	5.3079	1.4461	2.2012e-3
1882.0000	5.3135	1.4458	2.2160e-3
1880.0000	5.3191	1.4455	2.2311e-3
1878.0000	5.3248	1.4451	2.2465e-3
1876.0000	5.3305	1.4448	2.2622e-3
1874.0000	5.3362	1.4444	2.2782e-3
1872.0000	5.3419	1.4441	2.2945e-3
1870.0000	5.3476	1.4437	2.3112e-3
1868.0000	5.3533	1.4434	2.3283e-3
1866.0000	5.3591	1.4430	2.3457e-3
1864.0000	5.3648	1.4426	2.3635e-3
1862.0000	5.3706	1.4423	2.3817e-3
1860.0000	5.3763	1.4419	2.4004e-3
1858.0000	5.3821	1.4415	2.4194e-3
1856.0000	5.3879	1.4412	2.4389e-3
1854.0000	5.3937	1.4408	2.4589e-3
1852.0000	5.3996	1.4404	2.4794e-3
1850.0000	5.4054	1.4400	2.5003e-3
1848.0000	5.4113	1.4396	2.5218e-3
