Optical constants of Gypsum, calculated from oscillator parameters
listed in Long et al. (1993) Infrared Physics, Vol. 34, No. 2,
191-201.  gypsum E||X
Wave.          Freq.
(microns)    (cm-1)        n            k
2.5000	4000.0000	1.6048	2.0888e-4
2.5025	3996.0000	1.6048	2.0953e-4
2.5050	3992.0000	1.6047	2.1018e-4
2.5075	3988.0000	1.6047	2.1083e-4
2.5100	3984.0000	1.6047	2.1149e-4
2.5126	3980.0000	1.6046	2.1215e-4
2.5151	3976.0000	1.6046	2.1281e-4
2.5176	3972.0000	1.6046	2.1347e-4
2.5202	3968.0000	1.6045	2.1414e-4
2.5227	3964.0000	1.6045	2.1481e-4
2.5253	3960.0000	1.6045	2.1549e-4
2.5278	3956.0000	1.6044	2.1616e-4
2.5304	3952.0000	1.6044	2.1684e-4
2.5329	3948.0000	1.6044	2.1752e-4
2.5355	3944.0000	1.6043	2.1821e-4
2.5381	3940.0000	1.6043	2.1889e-4
2.5407	3936.0000	1.6043	2.1959e-4
2.5432	3932.0000	1.6042	2.2028e-4
2.5458	3928.0000	1.6042	2.2097e-4
2.5484	3924.0000	1.6042	2.2167e-4
2.5510	3920.0000	1.6041	2.2238e-4
2.5536	3916.0000	1.6041	2.2308e-4
2.5562	3912.0000	1.6041	2.2379e-4
2.5589	3908.0000	1.6040	2.2450e-4
2.5615	3904.0000	1.6040	2.2522e-4
2.5641	3900.0000	1.6040	2.2593e-4
2.5667	3896.0000	1.6039	2.2665e-4
2.5694	3892.0000	1.6039	2.2738e-4
2.5720	3888.0000	1.6039	2.2811e-4
2.5747	3884.0000	1.6038	2.2884e-4
2.5773	3880.0000	1.6038	2.2957e-4
2.5800	3876.0000	1.6038	2.3030e-4
2.5826	3872.0000	1.6037	2.3104e-4
2.5853	3868.0000	1.6037	2.3179e-4
2.5880	3864.0000	1.6036	2.3253e-4
2.5907	3860.0000	1.6036	2.3328e-4
2.5934	3856.0000	1.6036	2.3403e-4
2.5961	3852.0000	1.6035	2.3479e-4
2.5988	3848.0000	1.6035	2.3555e-4
2.6015	3844.0000	1.6035	2.3631e-4
2.6042	3840.0000	1.6034	2.3708e-4
2.6069	3836.0000	1.6034	2.3785e-4
2.6096	3832.0000	1.6034	2.3862e-4
2.6123	3828.0000	1.6033	2.3939e-4
2.6151	3824.0000	1.6033	2.4017e-4
2.6178	3820.0000	1.6032	2.4096e-4
2.6205	3816.0000	1.6032	2.4174e-4
2.6233	3812.0000	1.6032	2.4253e-4
2.6261	3808.0000	1.6031	2.4332e-4
2.6288	3804.0000	1.6031	2.4412e-4
2.6316	3800.0000	1.6031	2.4492e-4
2.6344	3796.0000	1.6030	2.4572e-4
2.6371	3792.0000	1.6030	2.4653e-4
2.6399	3788.0000	1.6029	2.4734e-4
2.6427	3784.0000	1.6029	2.4815e-4
2.6455	3780.0000	1.6029	2.4897e-4
2.6483	3776.0000	1.6028	2.4979e-4
2.6511	3772.0000	1.6028	2.5062e-4
2.6539	3768.0000	1.6027	2.5145e-4
2.6567	3764.0000	1.6027	2.5228e-4
2.6596	3760.0000	1.6027	2.5312e-4
2.6624	3756.0000	1.6026	2.5396e-4
2.6652	3752.0000	1.6026	2.5480e-4
2.6681	3748.0000	1.6026	2.5565e-4
2.6709	3744.0000	1.6025	2.5650e-4
2.6738	3740.0000	1.6025	2.5735e-4
2.6767	3736.0000	1.6024	2.5821e-4
2.6795	3732.0000	1.6024	2.5908e-4
2.6824	3728.0000	1.6024	2.5994e-4
2.6853	3724.0000	1.6023	2.6081e-4
2.6882	3720.0000	1.6023	2.6169e-4
2.6911	3716.0000	1.6022	2.6257e-4
2.6940	3712.0000	1.6022	2.6345e-4
2.6969	3708.0000	1.6021	2.6434e-4
2.6998	3704.0000	1.6021	2.6523e-4
2.7027	3700.0000	1.6021	2.6612e-4
2.7056	3696.0000	1.6020	2.6702e-4
2.7086	3692.0000	1.6020	2.6792e-4
2.7115	3688.0000	1.6019	2.6883e-4
2.7144	3684.0000	1.6019	2.6974e-4
2.7174	3680.0000	1.6019	2.7066e-4
2.7203	3676.0000	1.6018	2.7157e-4
2.7233	3672.0000	1.6018	2.7250e-4
2.7263	3668.0000	1.6017	2.7343e-4
2.7293	3664.0000	1.6017	2.7436e-4
2.7322	3660.0000	1.6016	2.7529e-4
2.7352	3656.0000	1.6016	2.7624e-4
2.7382	3652.0000	1.6016	2.7718e-4
2.7412	3648.0000	1.6015	2.7813e-4
2.7442	3644.0000	1.6015	2.7908e-4
2.7473	3640.0000	1.6014	2.8004e-4
2.7503	3636.0000	1.6014	2.8101e-4
2.7533	3632.0000	1.6013	2.8197e-4
2.7563	3628.0000	1.6013	2.8294e-4
2.7594	3624.0000	1.6013	2.8392e-4
2.7624	3620.0000	1.6012	2.8490e-4
2.7655	3616.0000	1.6012	2.8589e-4
2.7685	3612.0000	1.6011	2.8688e-4
2.7716	3608.0000	1.6011	2.8787e-4
2.7747	3604.0000	1.6010	2.8887e-4
2.7778	3600.0000	1.6010	2.8987e-4
2.7809	3596.0000	1.6009	2.9088e-4
2.7840	3592.0000	1.6009	2.9190e-4
2.7871	3588.0000	1.6008	2.9291e-4
2.7902	3584.0000	1.6008	2.9394e-4
2.7933	3580.0000	1.6008	2.9497e-4
2.7964	3576.0000	1.6007	2.9600e-4
2.7996	3572.0000	1.6007	2.9704e-4
2.8027	3568.0000	1.6006	2.9808e-4
2.8058	3564.0000	1.6006	2.9913e-4
2.8090	3560.0000	1.6005	3.0018e-4
2.8121	3556.0000	1.6005	3.0124e-4
2.8153	3552.0000	1.6004	3.0230e-4
2.8185	3548.0000	1.6004	3.0337e-4
2.8217	3544.0000	1.6003	3.0444e-4
2.8249	3540.0000	1.6003	3.0552e-4
2.8281	3536.0000	1.6002	3.0660e-4
2.8313	3532.0000	1.6002	3.0769e-4
2.8345	3528.0000	1.6001	3.0878e-4
2.8377	3524.0000	1.6001	3.0988e-4
2.8409	3520.0000	1.6000	3.1098e-4
2.8441	3516.0000	1.6000	3.1209e-4
2.8474	3512.0000	1.5999	3.1321e-4
2.8506	3508.0000	1.5999	3.1433e-4
2.8539	3504.0000	1.5998	3.1545e-4
2.8571	3500.0000	1.5998	3.1658e-4
2.8604	3496.0000	1.5998	3.1772e-4
2.8637	3492.0000	1.5997	3.1886e-4
2.8670	3488.0000	1.5997	3.2001e-4
2.8703	3484.0000	1.5996	3.2116e-4
2.8736	3480.0000	1.5995	3.2232e-4
2.8769	3476.0000	1.5995	3.2348e-4
2.8802	3472.0000	1.5994	3.2465e-4
2.8835	3468.0000	1.5994	3.2583e-4
2.8868	3464.0000	1.5993	3.2701e-4
2.8902	3460.0000	1.5993	3.2820e-4
2.8935	3456.0000	1.5992	3.2939e-4
2.8969	3452.0000	1.5992	3.3059e-4
2.9002	3448.0000	1.5991	3.3179e-4
2.9036	3444.0000	1.5991	3.3301e-4
2.9070	3440.0000	1.5990	3.3422e-4
2.9104	3436.0000	1.5990	3.3545e-4
2.9138	3432.0000	1.5989	3.3667e-4
2.9172	3428.0000	1.5989	3.3791e-4
2.9206	3424.0000	1.5988	3.3915e-4
2.9240	3420.0000	1.5988	3.4040e-4
2.9274	3416.0000	1.5987	3.4165e-4
2.9308	3412.0000	1.5987	3.4291e-4
2.9343	3408.0000	1.5986	3.4418e-4
2.9377	3404.0000	1.5986	3.4545e-4
2.9412	3400.0000	1.5985	3.4673e-4
2.9446	3396.0000	1.5984	3.4801e-4
2.9481	3392.0000	1.5984	3.4930e-4
2.9516	3388.0000	1.5983	3.5060e-4
2.9551	3384.0000	1.5983	3.5191e-4
2.9586	3380.0000	1.5982	3.5322e-4
2.9621	3376.0000	1.5982	3.5454e-4
2.9656	3372.0000	1.5981	3.5586e-4
2.9691	3368.0000	1.5981	3.5719e-4
2.9727	3364.0000	1.5980	3.5853e-4
2.9762	3360.0000	1.5979	3.5987e-4
2.9797	3356.0000	1.5979	3.6123e-4
2.9833	3352.0000	1.5978	3.6258e-4
2.9869	3348.0000	1.5978	3.6395e-4
2.9904	3344.0000	1.5977	3.6532e-4
2.9940	3340.0000	1.5977	3.6670e-4
2.9976	3336.0000	1.5976	3.6809e-4
3.0012	3332.0000	1.5975	3.6948e-4
3.0048	3328.0000	1.5975	3.7088e-4
3.0084	3324.0000	1.5974	3.7229e-4
3.0120	3320.0000	1.5974	3.7371e-4
3.0157	3316.0000	1.5973	3.7513e-4
3.0193	3312.0000	1.5972	3.7656e-4
3.0230	3308.0000	1.5972	3.7800e-4
3.0266	3304.0000	1.5971	3.7944e-4
3.0303	3300.0000	1.5971	3.8089e-4
3.0340	3296.0000	1.5970	3.8235e-4
3.0377	3292.0000	1.5969	3.8382e-4
3.0414	3288.0000	1.5969	3.8529e-4
3.0451	3284.0000	1.5968	3.8678e-4
3.0488	3280.0000	1.5968	3.8827e-4
3.0525	3276.0000	1.5967	3.8977e-4
3.0562	3272.0000	1.5966	3.9127e-4
3.0600	3268.0000	1.5966	3.9278e-4
3.0637	3264.0000	1.5965	3.9431e-4
3.0675	3260.0000	1.5965	3.9584e-4
3.0713	3256.0000	1.5964	3.9737e-4
3.0750	3252.0000	1.5963	3.9892e-4
3.0788	3248.0000	1.5963	4.0047e-4
3.0826	3244.0000	1.5962	4.0204e-4
3.0864	3240.0000	1.5961	4.0361e-4
3.0902	3236.0000	1.5961	4.0519e-4
3.0941	3232.0000	1.5960	4.0677e-4
3.0979	3228.0000	1.5959	4.0837e-4
3.1017	3224.0000	1.5959	4.0997e-4
3.1056	3220.0000	1.5958	4.1159e-4
3.1095	3216.0000	1.5957	4.1321e-4
3.1133	3212.0000	1.5957	4.1484e-4
3.1172	3208.0000	1.5956	4.1648e-4
3.1211	3204.0000	1.5956	4.1813e-4
3.1250	3200.0000	1.5955	4.1978e-4
3.1289	3196.0000	1.5954	4.2145e-4
3.1328	3192.0000	1.5954	4.2312e-4
3.1368	3188.0000	1.5953	4.2481e-4
3.1407	3184.0000	1.5952	4.2650e-4
3.1447	3180.0000	1.5951	4.2820e-4
3.1486	3176.0000	1.5951	4.2991e-4
3.1526	3172.0000	1.5950	4.3163e-4
3.1566	3168.0000	1.5949	4.3336e-4
3.1606	3164.0000	1.5949	4.3510e-4
3.1646	3160.0000	1.5948	4.3685e-4
3.1686	3156.0000	1.5947	4.3861e-4
3.1726	3152.0000	1.5947	4.4038e-4
3.1766	3148.0000	1.5946	4.4215e-4
3.1807	3144.0000	1.5945	4.4394e-4
3.1847	3140.0000	1.5945	4.4574e-4
3.1888	3136.0000	1.5944	4.4754e-4
3.1928	3132.0000	1.5943	4.4936e-4
3.1969	3128.0000	1.5942	4.5119e-4
3.2010	3124.0000	1.5942	4.5303e-4
3.2051	3120.0000	1.5941	4.5487e-4
3.2092	3116.0000	1.5940	4.5673e-4
3.2134	3112.0000	1.5940	4.5860e-4
3.2175	3108.0000	1.5939	4.6048e-4
3.2216	3104.0000	1.5938	4.6237e-4
3.2258	3100.0000	1.5937	4.6426e-4
3.2300	3096.0000	1.5937	4.6617e-4
3.2342	3092.0000	1.5936	4.6810e-4
3.2383	3088.0000	1.5935	4.7003e-4
3.2425	3084.0000	1.5934	4.7197e-4
3.2468	3080.0000	1.5934	4.7392e-4
3.2510	3076.0000	1.5933	4.7589e-4
3.2552	3072.0000	1.5932	4.7786e-4
3.2595	3068.0000	1.5931	4.7985e-4
3.2637	3064.0000	1.5930	4.8185e-4
3.2680	3060.0000	1.5930	4.8385e-4
3.2723	3056.0000	1.5929	4.8587e-4
3.2765	3052.0000	1.5928	4.8791e-4
3.2808	3048.0000	1.5927	4.8995e-4
3.2852	3044.0000	1.5927	4.9201e-4
3.2895	3040.0000	1.5926	4.9407e-4
3.2938	3036.0000	1.5925	4.9615e-4
3.2982	3032.0000	1.5924	4.9824e-4
3.3025	3028.0000	1.5923	5.0034e-4
3.3069	3024.0000	1.5923	5.0246e-4
3.3113	3020.0000	1.5922	5.0459e-4
3.3156	3016.0000	1.5921	5.0673e-4
3.3201	3012.0000	1.5920	5.0888e-4
3.3245	3008.0000	1.5919	5.1104e-4
3.3289	3004.0000	1.5919	5.1322e-4
3.3333	3000.0000	1.5918	5.1541e-4
3.3378	2996.0000	1.5917	5.1761e-4
3.3422	2992.0000	1.5916	5.1982e-4
3.3467	2988.0000	1.5915	5.2205e-4
3.3512	2984.0000	1.5914	5.2429e-4
3.3557	2980.0000	1.5914	5.2655e-4
3.3602	2976.0000	1.5913	5.2881e-4
3.3647	2972.0000	1.5912	5.3109e-4
3.3693	2968.0000	1.5911	5.3339e-4
3.3738	2964.0000	1.5910	5.3570e-4
3.3784	2960.0000	1.5909	5.3802e-4
3.3829	2956.0000	1.5908	5.4035e-4
3.3875	2952.0000	1.5908	5.4270e-4
3.3921	2948.0000	1.5907	5.4506e-4
3.3967	2944.0000	1.5906	5.4744e-4
3.4014	2940.0000	1.5905	5.4983e-4
3.4060	2936.0000	1.5904	5.5224e-4
3.4106	2932.0000	1.5903	5.5466e-4
3.4153	2928.0000	1.5902	5.5709e-4
3.4200	2924.0000	1.5901	5.5954e-4
3.4247	2920.0000	1.5900	5.6200e-4
3.4294	2916.0000	1.5899	5.6448e-4
3.4341	2912.0000	1.5899	5.6697e-4
3.4388	2908.0000	1.5898	5.6948e-4
3.4435	2904.0000	1.5897	5.7200e-4
3.4483	2900.0000	1.5896	5.7454e-4
3.4530	2896.0000	1.5895	5.7710e-4
3.4578	2892.0000	1.5894	5.7967e-4
3.4626	2888.0000	1.5893	5.8225e-4
3.4674	2884.0000	1.5892	5.8485e-4
3.4722	2880.0000	1.5891	5.8747e-4
3.4771	2876.0000	1.5890	5.9010e-4
3.4819	2872.0000	1.5889	5.9275e-4
3.4868	2868.0000	1.5888	5.9542e-4
3.4916	2864.0000	1.5887	5.9810e-4
3.4965	2860.0000	1.5886	6.0079e-4
3.5014	2856.0000	1.5885	6.0351e-4
3.5063	2852.0000	1.5884	6.0624e-4
3.5112	2848.0000	1.5883	6.0899e-4
3.5162	2844.0000	1.5882	6.1176e-4
3.5211	2840.0000	1.5881	6.1454e-4
3.5261	2836.0000	1.5880	6.1734e-4
3.5311	2832.0000	1.5879	6.2016e-4
3.5361	2828.0000	1.5878	6.2299e-4
3.5411	2824.0000	1.5877	6.2584e-4
3.5461	2820.0000	1.5876	6.2872e-4
3.5511	2816.0000	1.5875	6.3160e-4
3.5562	2812.0000	1.5874	6.3451e-4
3.5613	2808.0000	1.5873	6.3744e-4
3.5663	2804.0000	1.5872	6.4038e-4
3.5714	2800.0000	1.5871	6.4334e-4
3.5765	2796.0000	1.5870	6.4633e-4
3.5817	2792.0000	1.5869	6.4933e-4
3.5868	2788.0000	1.5868	6.5235e-4
3.5920	2784.0000	1.5867	6.5539e-4
3.5971	2780.0000	1.5866	6.5844e-4
3.6023	2776.0000	1.5865	6.6152e-4
3.6075	2772.0000	1.5864	6.6462e-4
3.6127	2768.0000	1.5863	6.6774e-4
3.6179	2764.0000	1.5862	6.7087e-4
3.6232	2760.0000	1.5860	6.7403e-4
3.6284	2756.0000	1.5859	6.7721e-4
3.6337	2752.0000	1.5858	6.8041e-4
3.6390	2748.0000	1.5857	6.8363e-4
3.6443	2744.0000	1.5856	6.8687e-4
3.6496	2740.0000	1.5855	6.9013e-4
3.6550	2736.0000	1.5854	6.9341e-4
3.6603	2732.0000	1.5853	6.9672e-4
3.6657	2728.0000	1.5851	7.0004e-4
3.6711	2724.0000	1.5850	7.0339e-4
3.6765	2720.0000	1.5849	7.0676e-4
3.6819	2716.0000	1.5848	7.1016e-4
3.6873	2712.0000	1.5847	7.1357e-4
3.6928	2708.0000	1.5846	7.1701e-4
3.6982	2704.0000	1.5844	7.2047e-4
3.7037	2700.0000	1.5843	7.2395e-4
3.7092	2696.0000	1.5842	7.2746e-4
3.7147	2692.0000	1.5841	7.3099e-4
3.7202	2688.0000	1.5840	7.3454e-4
3.7258	2684.0000	1.5838	7.3812e-4
3.7313	2680.0000	1.5837	7.4172e-4
3.7369	2676.0000	1.5836	7.4534e-4
3.7425	2672.0000	1.5835	7.4899e-4
3.7481	2668.0000	1.5834	7.5266e-4
3.7538	2664.0000	1.5832	7.5636e-4
3.7594	2660.0000	1.5831	7.6009e-4
3.7651	2656.0000	1.5830	7.6384e-4
3.7707	2652.0000	1.5829	7.6761e-4
3.7764	2648.0000	1.5827	7.7141e-4
3.7821	2644.0000	1.5826	7.7524e-4
3.7879	2640.0000	1.5825	7.7909e-4
3.7936	2636.0000	1.5823	7.8297e-4
3.7994	2632.0000	1.5822	7.8688e-4
3.8052	2628.0000	1.5821	7.9081e-4
3.8110	2624.0000	1.5819	7.9477e-4
3.8168	2620.0000	1.5818	7.9876e-4
3.8226	2616.0000	1.5817	8.0277e-4
3.8285	2612.0000	1.5815	8.0681e-4
3.8344	2608.0000	1.5814	8.1088e-4
3.8402	2604.0000	1.5813	8.1498e-4
3.8462	2600.0000	1.5811	8.1911e-4
3.8521	2596.0000	1.5810	8.2327e-4
3.8580	2592.0000	1.5809	8.2745e-4
3.8640	2588.0000	1.5807	8.3167e-4
3.8700	2584.0000	1.5806	8.3591e-4
3.8760	2580.0000	1.5805	8.4019e-4
3.8820	2576.0000	1.5803	8.4449e-4
3.8880	2572.0000	1.5802	8.4883e-4
3.8941	2568.0000	1.5800	8.5320e-4
3.9002	2564.0000	1.5799	8.5759e-4
3.9063	2560.0000	1.5797	8.6202e-4
3.9124	2556.0000	1.5796	8.6648e-4
3.9185	2552.0000	1.5795	8.7098e-4
3.9246	2548.0000	1.5793	8.7550e-4
3.9308	2544.0000	1.5792	8.8006e-4
3.9370	2540.0000	1.5790	8.8465e-4
3.9432	2536.0000	1.5789	8.8927e-4
3.9494	2532.0000	1.5787	8.9393e-4
3.9557	2528.0000	1.5786	8.9862e-4
3.9620	2524.0000	1.5784	9.0335e-4
3.9683	2520.0000	1.5783	9.0810e-4
3.9746	2516.0000	1.5781	9.1290e-4
3.9809	2512.0000	1.5780	9.1773e-4
3.9872	2508.0000	1.5778	9.2259e-4
3.9936	2504.0000	1.5777	9.2749e-4
4.0000	2500.0000	1.5775	9.3243e-4
4.0064	2496.0000	1.5773	9.3741e-4
4.0128	2492.0000	1.5772	9.4242e-4
4.0193	2488.0000	1.5770	9.4746e-4
4.0258	2484.0000	1.5769	9.5255e-4
4.0323	2480.0000	1.5767	9.5767e-4
4.0388	2476.0000	1.5765	9.6283e-4
4.0453	2472.0000	1.5764	9.6803e-4
4.0519	2468.0000	1.5762	9.7327e-4
4.0584	2464.0000	1.5761	9.7855e-4
4.0650	2460.0000	1.5759	9.8387e-4
4.0717	2456.0000	1.5757	9.8923e-4
4.0783	2452.0000	1.5756	9.9463e-4
4.0850	2448.0000	1.5754	1.0001e-3
4.0917	2444.0000	1.5752	1.0056e-3
4.0984	2440.0000	1.5750	1.0111e-3
4.1051	2436.0000	1.5749	1.0166e-3
4.1118	2432.0000	1.5747	1.0222e-3
4.1186	2428.0000	1.5745	1.0279e-3
4.1254	2424.0000	1.5744	1.0336e-3
4.1322	2420.0000	1.5742	1.0393e-3
4.1391	2416.0000	1.5740	1.0451e-3
4.1459	2412.0000	1.5738	1.0510e-3
4.1528	2408.0000	1.5736	1.0568e-3
4.1597	2404.0000	1.5735	1.0627e-3
4.1667	2400.0000	1.5733	1.0687e-3
4.1736	2396.0000	1.5731	1.0747e-3
4.1806	2392.0000	1.5729	1.0808e-3
4.1876	2388.0000	1.5727	1.0869e-3
4.1946	2384.0000	1.5725	1.0931e-3
4.2017	2380.0000	1.5724	1.0993e-3
4.2088	2376.0000	1.5722	1.1055e-3
4.2159	2372.0000	1.5720	1.1118e-3
4.2230	2368.0000	1.5718	1.1182e-3
4.2301	2364.0000	1.5716	1.1246e-3
4.2373	2360.0000	1.5714	1.1310e-3
4.2445	2356.0000	1.5712	1.1376e-3
4.2517	2352.0000	1.5710	1.1441e-3
4.2589	2348.0000	1.5708	1.1507e-3
4.2662	2344.0000	1.5706	1.1574e-3
4.2735	2340.0000	1.5704	1.1641e-3
4.2808	2336.0000	1.5702	1.1709e-3
4.2882	2332.0000	1.5700	1.1777e-3
4.2955	2328.0000	1.5698	1.1846e-3
4.3029	2324.0000	1.5696	1.1916e-3
4.3103	2320.0000	1.5694	1.1986e-3
4.3178	2316.0000	1.5692	1.2056e-3
4.3253	2312.0000	1.5690	1.2128e-3
4.3328	2308.0000	1.5688	1.2199e-3
4.3403	2304.0000	1.5686	1.2272e-3
4.3478	2300.0000	1.5684	1.2345e-3
4.3554	2296.0000	1.5681	1.2418e-3
4.3630	2292.0000	1.5679	1.2493e-3
4.3706	2288.0000	1.5677	1.2568e-3
4.3783	2284.0000	1.5675	1.2643e-3
4.3860	2280.0000	1.5673	1.2719e-3
4.3937	2276.0000	1.5670	1.2796e-3
4.4014	2272.0000	1.5668	1.2873e-3
4.4092	2268.0000	1.5666	1.2951e-3
4.4170	2264.0000	1.5664	1.3030e-3
4.4248	2260.0000	1.5661	1.3110e-3
4.4326	2256.0000	1.5659	1.3190e-3
4.4405	2252.0000	1.5657	1.3271e-3
4.4484	2248.0000	1.5655	1.3352e-3
4.4563	2244.0000	1.5652	1.3434e-3
4.4643	2240.0000	1.5650	1.3517e-3
4.4723	2236.0000	1.5647	1.3601e-3
4.4803	2232.0000	1.5645	1.3685e-3
4.4883	2228.0000	1.5643	1.3771e-3
4.4964	2224.0000	1.5640	1.3857e-3
4.5045	2220.0000	1.5638	1.3943e-3
4.5126	2216.0000	1.5635	1.4031e-3
4.5208	2212.0000	1.5633	1.4119e-3
4.5290	2208.0000	1.5630	1.4208e-3
4.5372	2204.0000	1.5628	1.4298e-3
4.5455	2200.0000	1.5625	1.4388e-3
4.5537	2196.0000	1.5623	1.4480e-3
4.5620	2192.0000	1.5620	1.4572e-3
4.5704	2188.0000	1.5618	1.4665e-3
4.5788	2184.0000	1.5615	1.4759e-3
4.5872	2180.0000	1.5612	1.4854e-3
4.5956	2176.0000	1.5610	1.4950e-3
4.6041	2172.0000	1.5607	1.5046e-3
4.6125	2168.0000	1.5604	1.5144e-3
4.6211	2164.0000	1.5602	1.5242e-3
4.6296	2160.0000	1.5599	1.5341e-3
4.6382	2156.0000	1.5596	1.5441e-3
4.6468	2152.0000	1.5594	1.5542e-3
4.6555	2148.0000	1.5591	1.5644e-3
4.6642	2144.0000	1.5588	1.5748e-3
4.6729	2140.0000	1.5585	1.5852e-3
4.6816	2136.0000	1.5582	1.5957e-3
4.6904	2132.0000	1.5579	1.6062e-3
4.6992	2128.0000	1.5577	1.6169e-3
4.7081	2124.0000	1.5574	1.6278e-3
4.7170	2120.0000	1.5571	1.6387e-3
4.7259	2116.0000	1.5568	1.6497e-3
4.7348	2112.0000	1.5565	1.6608e-3
4.7438	2108.0000	1.5562	1.6720e-3
4.7529	2104.0000	1.5559	1.6833e-3
4.7619	2100.0000	1.5556	1.6948e-3
4.7710	2096.0000	1.5553	1.7063e-3
4.7801	2092.0000	1.5550	1.7180e-3
4.7893	2088.0000	1.5547	1.7298e-3
4.7985	2084.0000	1.5543	1.7417e-3
4.8077	2080.0000	1.5540	1.7537e-3
4.8170	2076.0000	1.5537	1.7659e-3
4.8263	2072.0000	1.5534	1.7781e-3
4.8356	2068.0000	1.5531	1.7905e-3
4.8450	2064.0000	1.5527	1.8030e-3
4.8544	2060.0000	1.5524	1.8157e-3
4.8638	2056.0000	1.5521	1.8284e-3
4.8733	2052.0000	1.5517	1.8413e-3
4.8828	2048.0000	1.5514	1.8544e-3
4.8924	2044.0000	1.5511	1.8675e-3
4.9020	2040.0000	1.5507	1.8808e-3
4.9116	2036.0000	1.5504	1.8943e-3
4.9213	2032.0000	1.5500	1.9079e-3
4.9310	2028.0000	1.5497	1.9216e-3
4.9407	2024.0000	1.5493	1.9354e-3
4.9505	2020.0000	1.5490	1.9494e-3
4.9603	2016.0000	1.5486	1.9636e-3
4.9702	2012.0000	1.5482	1.9779e-3
4.9801	2008.0000	1.5479	1.9924e-3
4.9900	2004.0000	1.5475	2.0070e-3
5.0000	2000.0000	1.5471	2.0218e-3
5.0050	1998.0000	1.5469	2.0292e-3
5.0100	1996.0000	1.5467	2.0367e-3
5.0150	1994.0000	1.5466	2.0442e-3
5.0201	1992.0000	1.5464	2.0518e-3
5.0251	1990.0000	1.5462	2.0594e-3
5.0302	1988.0000	1.5460	2.0671e-3
5.0352	1986.0000	1.5458	2.0748e-3
5.0403	1984.0000	1.5456	2.0825e-3
5.0454	1982.0000	1.5454	2.0903e-3
5.0505	1980.0000	1.5452	2.0981e-3
5.0556	1978.0000	1.5450	2.1059e-3
5.0607	1976.0000	1.5448	2.1139e-3
5.0659	1974.0000	1.5446	2.1218e-3
5.0710	1972.0000	1.5444	2.1298e-3
5.0761	1970.0000	1.5442	2.1378e-3
5.0813	1968.0000	1.5440	2.1459e-3
5.0865	1966.0000	1.5438	2.1540e-3
5.0916	1964.0000	1.5436	2.1622e-3
5.0968	1962.0000	1.5434	2.1704e-3
5.1020	1960.0000	1.5432	2.1787e-3
5.1073	1958.0000	1.5430	2.1870e-3
5.1125	1956.0000	1.5428	2.1954e-3
5.1177	1954.0000	1.5426	2.2038e-3
5.1230	1952.0000	1.5424	2.2122e-3
5.1282	1950.0000	1.5422	2.2207e-3
5.1335	1948.0000	1.5420	2.2293e-3
5.1387	1946.0000	1.5418	2.2379e-3
5.1440	1944.0000	1.5415	2.2465e-3
5.1493	1942.0000	1.5413	2.2552e-3
5.1546	1940.0000	1.5411	2.2640e-3
5.1600	1938.0000	1.5409	2.2728e-3
5.1653	1936.0000	1.5407	2.2816e-3
5.1706	1934.0000	1.5405	2.2905e-3
5.1760	1932.0000	1.5402	2.2995e-3
5.1813	1930.0000	1.5400	2.3085e-3
5.1867	1928.0000	1.5398	2.3175e-3
5.1921	1926.0000	1.5396	2.3266e-3
5.1975	1924.0000	1.5394	2.3358e-3
5.2029	1922.0000	1.5391	2.3450e-3
5.2083	1920.0000	1.5389	2.3543e-3
5.2138	1918.0000	1.5387	2.3636e-3
5.2192	1916.0000	1.5385	2.3730e-3
5.2247	1914.0000	1.5382	2.3824e-3
5.2301	1912.0000	1.5380	2.3919e-3
5.2356	1910.0000	1.5378	2.4015e-3
5.2411	1908.0000	1.5376	2.4111e-3
5.2466	1906.0000	1.5373	2.4207e-3
5.2521	1904.0000	1.5371	2.4304e-3
5.2576	1902.0000	1.5369	2.4402e-3
5.2632	1900.0000	1.5366	2.4501e-3
5.2687	1898.0000	1.5364	2.4599e-3
5.2743	1896.0000	1.5362	2.4699e-3
5.2798	1894.0000	1.5359	2.4799e-3
5.2854	1892.0000	1.5357	2.4900e-3
5.2910	1890.0000	1.5354	2.5001e-3
5.2966	1888.0000	1.5352	2.5103e-3
5.3022	1886.0000	1.5350	2.5206e-3
5.3079	1884.0000	1.5347	2.5309e-3
5.3135	1882.0000	1.5345	2.5413e-3
5.3191	1880.0000	1.5342	2.5518e-3
5.3248	1878.0000	1.5340	2.5623e-3
5.3305	1876.0000	1.5337	2.5729e-3
5.3362	1874.0000	1.5335	2.5835e-3
5.3419	1872.0000	1.5332	2.5942e-3
