Data created using the Lorentz line parameters in J.R. Aronson and P.F.
Strong, Optical constants of minerals and rocks, Applied Optics, 14, 
2914-2920, 1975.  These could be recalculated at any spectral resolution.
Range of validity is given as 1700-230 inverse centimeters.  Be sure to
check the reference for a description of the sample.

high frq. dielec. const=  3.236
Lorentz line parameters
center  width  strength
1536.4  0.0559  0.0520
1077.2  0.0324  0.1510
1006.8  0.0326  0.0320
 951.3  0.0386  0.1130
 904.5  0.0532  0.5450
 755.9  0.0956  0.0800
 634.8  0.0469  0.0660
 542.1  0.0814  0.2690
 507.3  0.0441  0.3450
 480.0  0.0599  0.4390
 433.6  0.0236  0.0390
 401.5  0.0875  0.7540
 333.1  0.0579  0.5840
 297.9  0.1063  0.5720
 186.3  0.3096  6.1260

 wave.    freq.   calc.        real       imag.
(micron)  (cm-1)  refl.       index       index
43.4783   230.0  0.2924       1.999       1.519
43.1034   232.0  0.2775       1.999       1.440
42.7350   234.0  0.2636       2.004       1.364
42.3729   236.0  0.2508       2.016       1.291
42.0168   238.0  0.2395       2.033       1.222
41.6667   240.0  0.2298       2.054       1.157
41.3223   242.0  0.2216       2.080       1.096
40.9836   244.0  0.2151       2.110       1.040
40.6504   246.0  0.2102       2.143      0.9878
40.3226   248.0  0.2069       2.179      0.9401
40.0000   250.0  0.2049       2.217      0.8970
39.6825   252.0  0.2042       2.257      0.8582
39.3701   254.0  0.2046       2.299      0.8238
39.0625   256.0  0.2060       2.342      0.7936
38.7597   258.0  0.2083       2.387      0.7676
38.4615   260.0  0.2114       2.433      0.7458
38.1679   262.0  0.2151       2.479      0.7281
37.8788   264.0  0.2195       2.527      0.7146
37.5940   266.0  0.2243       2.575      0.7055
37.3134   268.0  0.2297       2.624      0.7008
37.0370   270.0  0.2354       2.674      0.7008
36.7647   272.0  0.2416       2.724      0.7058
36.4964   274.0  0.2481       2.774      0.7164
36.2319   276.0  0.2549       2.824      0.7330
35.9712   278.0  0.2621       2.873      0.7563
35.7143   280.0  0.2694       2.921      0.7869
35.4610   282.0  0.2769       2.965      0.8255
35.2113   284.0  0.2845       3.004      0.8726
34.9650   286.0  0.2919       3.036      0.9281
34.7222   288.0  0.2990       3.057      0.9915
34.4828   290.0  0.3053       3.065       1.061
34.2466   292.0  0.3106       3.056       1.132
34.0136   294.0  0.3143       3.029       1.199
33.7838   296.0  0.3159       2.984       1.256
33.5570   298.0  0.3151       2.925       1.295
33.3333   300.0  0.3117       2.860       1.312
33.1126   302.0  0.3061       2.798       1.305
32.8947   304.0  0.2990       2.748       1.278
32.6797   306.0  0.2915       2.716       1.236
32.4675   308.0  0.2851       2.705       1.186
32.2581   310.0  0.2808       2.717       1.138
32.0513   312.0  0.2794       2.750       1.097
31.8471   314.0  0.2813       2.801       1.068
31.6456   316.0  0.2865       2.867       1.058
31.4465   318.0  0.2947       2.943       1.069
31.2500   320.0  0.3057       3.026       1.106
31.0559   322.0  0.3191       3.110       1.174
30.8642   324.0  0.3347       3.186       1.278
30.6748   326.0  0.3521       3.239       1.423
30.4878   328.0  0.3703       3.250       1.607
30.3030   330.0  0.3881       3.193       1.815
30.1205   332.0  0.4034       3.050       2.012
29.9401   334.0  0.4136       2.831       2.153
29.7619   336.0  0.4161       2.571       2.205
29.5858   338.0  0.4093       2.319       2.165
29.4118   340.0  0.3928       2.108       2.056
29.2398   342.0  0.3676       1.950       1.906
29.0698   344.0  0.3359       1.847       1.738
28.9017   346.0  0.3009       1.793       1.568
28.7356   348.0  0.2665       1.778       1.407
28.5714   350.0  0.2365       1.795       1.262
28.4091   352.0  0.2132       1.835       1.136
28.2486   354.0  0.1972       1.892       1.031
28.0899   356.0  0.1881       1.958      0.9467
27.9330   358.0  0.1843       2.029      0.8798
27.7778   360.0  0.1845       2.103      0.8284
27.6243   362.0  0.1875       2.177      0.7904
27.4725   364.0  0.1925       2.250      0.7638
27.3224   366.0  0.1989       2.322      0.7472
27.1739   368.0  0.2062       2.393      0.7397
27.0270   370.0  0.2142       2.462      0.7403
26.8817   372.0  0.2228       2.529      0.7490
26.7380   374.0  0.2317       2.595      0.7654
26.5957   376.0  0.2410       2.659      0.7898
26.4550   378.0  0.2506       2.721      0.8224
26.3158   380.0  0.2604       2.781      0.8639
26.1780   382.0  0.2706       2.836      0.9147
26.0417   384.0  0.2809       2.886      0.9756
25.9067   386.0  0.2915       2.930       1.047
25.7732   388.0  0.3021       2.964       1.129
25.6410   390.0  0.3128       2.986       1.222
25.5102   392.0  0.3233       2.992       1.323
25.3807   394.0  0.3334       2.977       1.430
25.2525   396.0  0.3427       2.940       1.539
25.1256   398.0  0.3509       2.878       1.642
25.0000   400.0  0.3576       2.792       1.733
24.8756   402.0  0.3621       2.686       1.804
24.7525   404.0  0.3640       2.565       1.850
24.6305   406.0  0.3630       2.438       1.868
24.5098   408.0  0.3586       2.313       1.857
24.3902   410.0  0.3507       2.196       1.821
24.2718   412.0  0.3394       2.094       1.763
24.1546   414.0  0.3250       2.010       1.689
24.0385   416.0  0.3079       1.946       1.603
23.9234   418.0  0.2892       1.903       1.510
23.8095   420.0  0.2699       1.882       1.416
23.6967   422.0  0.2519       1.884       1.325
23.5849   424.0  0.2369       1.907       1.243
23.4742   426.0  0.2270       1.950       1.178
23.3645   428.0  0.2239       2.008       1.141
23.2558   430.0  0.2283       2.064       1.145
23.1481   432.0  0.2369       2.081       1.190
23.0415   434.0  0.2389       2.022       1.222
22.9358   436.0  0.2253       1.937       1.173
22.8311   438.0  0.2041       1.903       1.066
22.7273   440.0  0.1878       1.926      0.9610
22.6244   442.0  0.1795       1.981      0.8786
22.5225   444.0  0.1776       2.048      0.8191
22.4215   446.0  0.1800       2.121      0.7781
22.3214   448.0  0.1850       2.195      0.7515
22.2222   450.0  0.1919       2.270      0.7369
22.1239   452.0  0.2000       2.345      0.7325
22.0264   454.0  0.2091       2.419      0.7375
21.9298   456.0  0.2189       2.493      0.7517
21.8341   458.0  0.2293       2.566      0.7754
21.7391   460.0  0.2404       2.639      0.8090
21.6450   462.0  0.2520       2.709      0.8535
21.5517   464.0  0.2640       2.777      0.9099
21.4592   466.0  0.2766       2.839      0.9794
21.3675   468.0  0.2895       2.893       1.063
21.2766   470.0  0.3025       2.935       1.160
21.1864   472.0  0.3154       2.960       1.270
21.0970   474.0  0.3278       2.961       1.389
21.0084   476.0  0.3389       2.934       1.509
20.9205   478.0  0.3481       2.877       1.619
20.8333   480.0  0.3546       2.796       1.709
20.7469   482.0  0.3577       2.698       1.768
20.6612   484.0  0.3570       2.599       1.793
20.5761   486.0  0.3530       2.512       1.788
20.4918   488.0  0.3466       2.449       1.760
20.4082   490.0  0.3397       2.416       1.723
20.3252   492.0  0.3344       2.413       1.689
20.2429   494.0  0.3326       2.437       1.672
20.1613   496.0  0.3358       2.478       1.681
20.0803   498.0  0.3442       2.526       1.724
20.0000   500.0  0.3575       2.566       1.805
19.9203   502.0  0.3748       2.580       1.921
19.8413   504.0  0.3946       2.550       2.060
19.7628   506.0  0.4148       2.465       2.201
19.6850   508.0  0.4334       2.328       2.315
19.6078   510.0  0.4482       2.157       2.381
19.5312   512.0  0.4576       1.978       2.392
19.4553   514.0  0.4610       1.815       2.355
19.3798   516.0  0.4584       1.680       2.286
19.3050   518.0  0.4504       1.577       2.199
19.2308   520.0  0.4380       1.504       2.106
19.1571   522.0  0.4228       1.458       2.015
19.0840   524.0  0.4066       1.432       1.934
19.0114   526.0  0.3908       1.423       1.864
18.9394   528.0  0.3771       1.425       1.808
18.8679   530.0  0.3663       1.432       1.768
18.7970   532.0  0.3589       1.440       1.741
18.7266   534.0  0.3550       1.444       1.727
18.6567   536.0  0.3541       1.442       1.723
18.5874   538.0  0.3557       1.431       1.725
18.5185   540.0  0.3591       1.411       1.730
18.4502   542.0  0.3635       1.381       1.735
18.3824   544.0  0.3684       1.342       1.736
18.3150   546.0  0.3730       1.296       1.731
18.2482   548.0  0.3769       1.246       1.719
18.1818   550.0  0.3797       1.194       1.699
18.1159   552.0  0.3810       1.142       1.671
18.0505   554.0  0.3806       1.092       1.636
17.9856   556.0  0.3783       1.045       1.594
17.9211   558.0  0.3740       1.002       1.547
17.8571   560.0  0.3676      0.9634       1.496
17.7936   562.0  0.3590      0.9299       1.442
17.7305   564.0  0.3482      0.9013       1.384
17.6678   566.0  0.3353      0.8779       1.325
17.6056   568.0  0.3203      0.8594       1.265
17.5439   570.0  0.3033      0.8459       1.204
17.4825   572.0  0.2845      0.8373       1.142
17.4216   574.0  0.2641      0.8335       1.081
17.3611   576.0  0.2424      0.8346       1.020
17.3010   578.0  0.2198      0.8405      0.9600
17.2414   580.0  0.1969      0.8511      0.9014
17.1821   582.0  0.1743      0.8664      0.8447
17.1233   584.0  0.1525      0.8860      0.7905
17.0648   586.0  0.1323      0.9097      0.7393
17.0068   588.0  0.1140      0.9370      0.6916
16.9492   590.0  0.0981      0.9674      0.6478
16.8919   592.0  0.0846       1.000      0.6081
16.8350   594.0  0.0737       1.035      0.5727
16.7785   596.0  0.0651       1.071      0.5414
16.7224   598.0  0.0586       1.108      0.5142
16.6667   600.0  0.0541       1.145      0.4910
16.6113   602.0  0.0513       1.183      0.4715
16.5563   604.0  0.0499       1.220      0.4558
16.5017   606.0  0.0497       1.258      0.4435
16.4474   608.0  0.0506       1.295      0.4348
16.3934   610.0  0.0524       1.331      0.4297
16.3399   612.0  0.0550       1.367      0.4283
16.2866   614.0  0.0582       1.401      0.4308
16.2338   616.0  0.0622       1.435      0.4374
16.1812   618.0  0.0666       1.467      0.4485
16.1290   620.0  0.0716       1.496      0.4645
16.0772   622.0  0.0769       1.521      0.4855
16.0256   624.0  0.0825       1.541      0.5116
15.9744   626.0  0.0882       1.554      0.5422
15.9236   628.0  0.0935       1.558      0.5759
15.8730   630.0  0.0982       1.551      0.6101
15.8228   632.0  0.1017       1.531      0.6412
15.7729   634.0  0.1034       1.500      0.6645
15.7233   636.0  0.1028       1.461      0.6760
15.6740   638.0  0.0998       1.419      0.6733
15.6250   640.0  0.0943       1.379      0.6565
15.5763   642.0  0.0871       1.344      0.6279
15.5280   644.0  0.0788       1.320      0.5911
15.4799   646.0  0.0704       1.305      0.5500
15.4321   648.0  0.0627       1.300      0.5081
15.3846   650.0  0.0562       1.303      0.4677
15.3374   652.0  0.0511       1.313      0.4304
15.2905   654.0  0.0475       1.327      0.3970
15.2439   656.0  0.0450       1.344      0.3675
15.1976   658.0  0.0437       1.364      0.3418
15.1515   660.0  0.0432       1.385      0.3196
15.1057   662.0  0.0434       1.406      0.3005
15.0602   664.0  0.0441       1.427      0.2840
15.0150   666.0  0.0452       1.449      0.2698
14.9701   668.0  0.0466       1.470      0.2576
14.9254   670.0  0.0482       1.491      0.2471
14.8810   672.0  0.0499       1.511      0.2381
14.8368   674.0  0.0518       1.530      0.2303
14.7929   676.0  0.0538       1.550      0.2236
14.7493   678.0  0.0558       1.568      0.2178
14.7059   680.0  0.0578       1.587      0.2129
14.6628   682.0  0.0599       1.605      0.2088
14.6199   684.0  0.0620       1.622      0.2053
14.5773   686.0  0.0641       1.639      0.2025
14.5349   688.0  0.0663       1.656      0.2003
14.4928   690.0  0.0684       1.672      0.1985
14.4509   692.0  0.0705       1.688      0.1973
14.4092   694.0  0.0726       1.703      0.1965
14.3678   696.0  0.0747       1.719      0.1962
14.3266   698.0  0.0768       1.734      0.1963
14.2857   700.0  0.0789       1.748      0.1969
14.2450   702.0  0.0809       1.763      0.1978
14.2045   704.0  0.0830       1.777      0.1992
14.1643   706.0  0.0850       1.791      0.2009
14.1243   708.0  0.0871       1.804      0.2031
14.0845   710.0  0.0891       1.818      0.2057
14.0449   712.0  0.0911       1.831      0.2086
14.0056   714.0  0.0930       1.843      0.2120
13.9665   716.0  0.0950       1.856      0.2159
13.9276   718.0  0.0969       1.868      0.2201
13.8889   720.0  0.0987       1.879      0.2248
13.8504   722.0  0.1006       1.890      0.2299
13.8122   724.0  0.1024       1.901      0.2354
13.7741   726.0  0.1041       1.911      0.2413
13.7363   728.0  0.1058       1.921      0.2475
13.6986   730.0  0.1074       1.930      0.2541
13.6612   732.0  0.1090       1.938      0.2610
13.6240   734.0  0.1104       1.945      0.2681
13.5870   736.0  0.1118       1.952      0.2754
13.5501   738.0  0.1130       1.958      0.2827
13.5135   740.0  0.1141       1.963      0.2900
13.4771   742.0  0.1150       1.967      0.2970
13.4409   744.0  0.1159       1.970      0.3037
13.4048   746.0  0.1165       1.972      0.3099
13.3690   748.0  0.1170       1.973      0.3154
13.3333   750.0  0.1174       1.973      0.3200
13.2979   752.0  0.1176       1.973      0.3237
13.2626   754.0  0.1177       1.973      0.3263
13.2275   756.0  0.1177       1.972      0.3277
13.1926   758.0  0.1176       1.971      0.3280
13.1579   760.0  0.1174       1.970      0.3270
13.1234   762.0  0.1173       1.970      0.3250
13.0890   764.0  0.1171       1.971      0.3219
13.0548   766.0  0.1170       1.972      0.3179
13.0208   768.0  0.1170       1.974      0.3131
12.9870   770.0  0.1171       1.977      0.3078
12.9534   772.0  0.1174       1.981      0.3020
12.9199   774.0  0.1177       1.986      0.2960
12.8866   776.0  0.1182       1.992      0.2899
12.8535   778.0  0.1189       1.999      0.2839
12.8205   780.0  0.1197       2.007      0.2780
12.7877   782.0  0.1207       2.016      0.2723
12.7551   784.0  0.1218       2.026      0.2670
12.7226   786.0  0.1231       2.037      0.2620
12.6904   788.0  0.1245       2.048      0.2575
12.6582   790.0  0.1260       2.060      0.2534
12.6263   792.0  0.1276       2.072      0.2498
12.5945   794.0  0.1293       2.085      0.2467
12.5628   796.0  0.1311       2.099      0.2441
12.5313   798.0  0.1330       2.112      0.2420
12.5000   800.0  0.1350       2.127      0.2405
12.4688   802.0  0.1370       2.141      0.2394
12.4378   804.0  0.1391       2.156      0.2388
12.4069   806.0  0.1413       2.172      0.2387
12.3762   808.0  0.1436       2.187      0.2390
12.3457   810.0  0.1459       2.203      0.2399
12.3153   812.0  0.1483       2.220      0.2413
12.2850   814.0  0.1508       2.237      0.2432
12.2549   816.0  0.1533       2.254      0.2455
12.2249   818.0  0.1559       2.271      0.2484
12.1951   820.0  0.1585       2.289      0.2518
12.1655   822.0  0.1612       2.307      0.2557
12.1359   824.0  0.1640       2.325      0.2601
12.1065   826.0  0.1668       2.344      0.2652
12.0773   828.0  0.1697       2.364      0.2708
12.0482   830.0  0.1727       2.383      0.2771
12.0192   832.0  0.1758       2.404      0.2840
11.9904   834.0  0.1790       2.424      0.2916
11.9617   836.0  0.1822       2.445      0.2999
11.9332   838.0  0.1855       2.467      0.3091
11.9048   840.0  0.1890       2.489      0.3191
11.8765   842.0  0.1925       2.512      0.3300
11.8483   844.0  0.1962       2.536      0.3419
11.8203   846.0  0.1999       2.560      0.3548
11.7925   848.0  0.2038       2.584      0.3690
11.7647   850.0  0.2078       2.610      0.3844
11.7371   852.0  0.2120       2.635      0.4012
11.7096   854.0  0.2163       2.662      0.4195
11.6822   856.0  0.2207       2.689      0.4396
11.6550   858.0  0.2254       2.717      0.4615
11.6279   860.0  0.2302       2.746      0.4854
11.6009   862.0  0.2351       2.775      0.5116
11.5741   864.0  0.2403       2.805      0.5403
11.5473   866.0  0.2457       2.835      0.5719
11.5207   868.0  0.2513       2.865      0.6065
11.4943   870.0  0.2572       2.896      0.6445
11.4679   872.0  0.2632       2.927      0.6863
11.4416   874.0  0.2696       2.957      0.7323
11.4155   876.0  0.2762       2.986      0.7828
11.3895   878.0  0.2830       3.014      0.8384
11.3636   880.0  0.2902       3.040      0.8993
11.3379   882.0  0.2976       3.063      0.9659
11.3122   884.0  0.3052       3.083       1.039
11.2867   886.0  0.3131       3.097       1.117
11.2613   888.0  0.3212       3.105       1.202
11.2360   890.0  0.3295       3.106       1.293
11.2108   892.0  0.3379       3.096       1.388
11.1857   894.0  0.3464       3.076       1.487
11.1607   896.0  0.3548       3.042       1.587
11.1359   898.0  0.3630       2.995       1.687
11.1111   900.0  0.3709       2.934       1.783
11.0865   902.0  0.3784       2.859       1.872
11.0619   904.0  0.3852       2.771       1.951
11.0375   906.0  0.3912       2.673       2.018
11.0132   908.0  0.3963       2.567       2.070
10.9890   910.0  0.4002       2.457       2.106
10.9649   912.0  0.4030       2.347       2.126
10.9409   914.0  0.4043       2.239       2.132
10.9170   916.0  0.4043       2.136       2.123
10.8932   918.0  0.4028       2.040       2.103
10.8696   920.0  0.3998       1.954       2.073
10.8460   922.0  0.3954       1.877       2.035
10.8225   924.0  0.3898       1.811       1.992
10.7991   926.0  0.3830       1.756       1.946
10.7759   928.0  0.3754       1.712       1.900
10.7527   930.0  0.3674       1.678       1.854
10.7296   932.0  0.3593       1.653       1.812
10.7066   934.0  0.3519       1.637       1.775
10.6838   936.0  0.3455       1.628       1.745
10.6610   938.0  0.3409       1.623       1.723
10.6383   940.0  0.3383       1.620       1.711
10.6157   942.0  0.3380       1.615       1.709
10.5932   944.0  0.3400       1.606       1.715
10.5708   946.0  0.3442       1.589       1.729
10.5485   948.0  0.3500       1.562       1.746
10.5263   950.0  0.3568       1.524       1.763
10.5042   952.0  0.3640       1.476       1.775
10.4822   954.0  0.3708       1.419       1.780
10.4603   956.0  0.3765       1.357       1.775
10.4384   958.0  0.3807       1.293       1.759
10.4167   960.0  0.3829       1.230       1.732
10.3950   962.0  0.3828       1.172       1.696
10.3734   964.0  0.3803       1.119       1.653
10.3520   966.0  0.3754       1.072       1.604
10.3306   968.0  0.3679       1.032       1.550
10.3093   970.0  0.3581      0.9999       1.494
10.2881   972.0  0.3459      0.9745       1.435
10.2669   974.0  0.3317      0.9559       1.377
10.2459   976.0  0.3155      0.9440       1.318
10.2249   978.0  0.2979      0.9386       1.261
10.2041   980.0  0.2791      0.9394       1.205
10.1833   982.0  0.2598      0.9462       1.151
10.1626   984.0  0.2406      0.9586       1.101
10.1420   986.0  0.2222      0.9761       1.056
10.1215   988.0  0.2053      0.9981       1.015
10.1010   990.0  0.1904       1.024      0.9811
10.0806   992.0  0.1782       1.051      0.9536
10.0604   994.0  0.1690       1.079      0.9335
10.0402   996.0  0.1626       1.106      0.9208
10.0200   998.0  0.1590       1.130      0.9152
10.0000  1000.0  0.1577       1.148      0.9153
 9.9800  1002.0  0.1580       1.159      0.9191
 9.9602  1004.0  0.1592       1.162      0.9238
 9.9404  1006.0  0.1602       1.156      0.9262
