Estimated optical constants of the Tagish Lake meteorite, from Roush,
Meteoritics and Planetary Science, v. 38, no. 3, 419-426, 2003.
  Wavelength Frequency  real     imaginary
  (microns)    (cm-1)   index      index
   25.9207    385.79   1.77712  3.5677E-02
   25.7917    387.72   1.77129  3.5665E-02
   25.6640    389.65   1.76291  3.5115E-02
   25.5376    391.58   1.75835  3.5697E-02
   25.4124    393.51   1.75466  3.6280E-02
   25.2885    395.44   1.75190  3.5440E-02
   25.1657    397.37   1.74988  3.5857E-02
   25.0441    399.30   1.74811  3.5620E-02
   24.9237    401.22   1.74663  3.6057E-02
   24.8045    403.15   1.74481  3.6910E-02
   24.6864    405.08   1.74280  3.6778E-02
   24.5694    407.01   1.74120  3.6022E-02
   24.4535    408.94   1.74022  3.5197E-02
   24.3387    410.87   1.73951  3.5119E-02
   24.2249    412.80   1.73871  3.5305E-02
   24.1123    414.73   1.73778  3.5326E-02
   24.0006    416.66   1.73687  3.5501E-02
   23.8900    418.59   1.73569  3.5765E-02
   23.7804    420.51   1.73446  3.5372E-02
   23.6719    422.44   1.73360  3.4476E-02
   23.5643    424.37   1.73301  3.4283E-02
   23.4576    426.30   1.73221  3.4248E-02
   23.3520    428.23   1.73133  3.3529E-02
   23.2472    430.16   1.73101  3.2515E-02
   23.1435    432.09   1.73077  3.2415E-02
   23.0406    434.02   1.73031  3.2331E-02
   22.9387    435.94   1.72990  3.1572E-02
   22.8376    437.87   1.72983  3.1147E-02
   22.7374    439.80   1.72961  3.1249E-02
   22.6381    441.73   1.72920  3.0970E-02
   22.5397    443.66   1.72899  3.0279E-02
   22.4421    445.59   1.72899  3.0003E-02
   22.3454    447.52   1.72899  2.9687E-02
   22.2495    449.45   1.72910  2.9453E-02
   22.1544    451.38   1.72919  2.9549E-02
   22.0602    453.31   1.72904  2.9738E-02
   21.9667    455.23   1.72883  2.9640E-02
   21.8740    457.16   1.72872  2.9345E-02
   21.7821    459.09   1.72871  2.9198E-02
   21.6909    461.02   1.72868  2.9222E-02
   21.6006    462.95   1.72859  2.9003E-02
   21.5109    464.88   1.72866  2.8810E-02
   21.4220    466.81   1.72877  2.8715E-02
   21.3339    468.74   1.72886  2.8684E-02
   21.2465    470.67   1.72896  2.8664E-02
   21.1597    472.60   1.72906  2.8709E-02
   21.0737    474.53   1.72916  2.8579E-02
   20.9884    476.45   1.72942  2.8464E-02
   20.9038    478.38   1.72972  2.8622E-02
   20.8198    480.31   1.72998  2.8877E-02
   20.7365    482.24   1.73017  2.9155E-02
   20.6539    484.17   1.73030  2.9512E-02
   20.5720    486.10   1.73037  2.9779E-02
   20.4907    488.03   1.73049  3.0021E-02
   20.4100    489.96   1.73053  3.0516E-02
   20.3299    491.89   1.73048  3.0809E-02
   20.2505    493.81   1.73046  3.0937E-02
   20.1717    495.74   1.73052  3.1183E-02
   20.0936    497.67   1.73062  3.1298E-02
   20.0160    499.60   1.73080  3.1708E-02
   19.9390    501.53   1.73078  3.2280E-02
   19.8626    503.46   1.73078  3.2321E-02
   19.7868    505.39   1.73099  3.2524E-02
   19.7115    507.32   1.73125  3.3109E-02
   19.6369    509.25   1.73129  3.3786E-02
   19.5628    511.17   1.73114  3.4546E-02
   19.4892    513.10   1.73101  3.4700E-02
   19.4162    515.03   1.73107  3.5047E-02
   19.3438    516.96   1.73109  3.5640E-02
   19.2719    518.89   1.73113  3.6040E-02
   19.2005    520.82   1.73124  3.6649E-02
   19.1297    522.75   1.73124  3.7368E-02
   19.0593    524.68   1.73126  3.8162E-02
   18.9895    526.61   1.73113  3.9029E-02
   18.9202    528.54   1.73090  3.9979E-02
   18.8514    530.46   1.73054  4.0848E-02
   18.7831    532.39   1.73019  4.1584E-02
   18.7153    534.32   1.72989  4.2413E-02
   18.6480    536.25   1.72936  4.3743E-02
   18.5811    538.18   1.72853  4.4889E-02
   18.5148    540.11   1.72744  4.5670E-02
   18.4489    542.04   1.72628  4.6420E-02
   18.3835    543.97   1.72513  4.6458E-02
   18.3185    545.90   1.72434  4.6474E-02
   18.2540    547.83   1.72352  4.6966E-02
   18.1899    549.76   1.72261  4.7269E-02
   18.1264    551.68   1.72157  4.7346E-02
   18.0632    553.61   1.72068  4.7419E-02
   18.0005    555.54   1.71981  4.7131E-02
   17.9382    557.47   1.71920  4.6931E-02
   17.8763    559.40   1.71864  4.7004E-02
   17.8149    561.33   1.71795  4.7035E-02
   17.7539    563.26   1.71737  4.6893E-02
   17.6933    565.19   1.71673  4.7158E-02
   17.6331    567.12   1.71595  4.7116E-02
   17.5733    569.05   1.71532  4.6850E-02
   17.5140    570.97   1.71467  4.6777E-02
   17.4550    572.90   1.71406  4.6723E-02
   17.3964    574.83   1.71342  4.6458E-02
   17.3382    576.76   1.71294  4.6104E-02
   17.2804    578.69   1.71253  4.6027E-02
   17.2230    580.62   1.71209  4.5943E-02
   17.1660    582.55   1.71157  4.6027E-02
   17.1094    584.47   1.71086  4.6066E-02
   17.0531    586.40   1.71015  4.5812E-02
   16.9972    588.33   1.70954  4.5247E-02
   16.9416    590.26   1.70922  4.4809E-02
   16.8864    592.19   1.70882  4.4774E-02
   16.8316    594.12   1.70836  4.4370E-02
   16.7771    596.05   1.70798  4.4232E-02
   16.7230    597.98   1.70743  4.3947E-02
   16.6692    599.91   1.70711  4.3228E-02
   16.6158    601.84   1.70701  4.2744E-02
   16.5627    603.77   1.70696  4.2671E-02
   16.5100    605.69   1.70669  4.2586E-02
   16.4576    607.62   1.70648  4.2263E-02
   16.4055    609.55   1.70641  4.1971E-02
   16.3537    611.48   1.70636  4.2098E-02
   16.3023    613.41   1.70599  4.2325E-02
   16.2512    615.34   1.70556  4.2105E-02
   16.2004    617.27   1.70531  4.1755E-02
   16.1500    619.20   1.70510  4.1502E-02
   16.0998    621.13   1.70502  4.1440E-02
   16.0499    623.06   1.70483  4.1521E-02
   16.0004    624.98   1.70445  4.1563E-02
   15.9512    626.91   1.70410  4.1329E-02
   15.9023    628.84   1.70382  4.1121E-02
   15.8536    630.77   1.70367  4.0963E-02
   15.8053    632.70   1.70335  4.0913E-02
   15.7572    634.63   1.70312  4.0756E-02
   15.7095    636.56   1.70283  4.0460E-02
   15.6620    638.49   1.70281  4.0227E-02
   15.6149    640.41   1.70261  4.0315E-02
   15.5680    642.34   1.70239  4.0267E-02
   15.5214    644.27   1.70217  4.0060E-02
   15.4750    646.20   1.70207  4.0083E-02
   15.4290    648.13   1.70174  4.0117E-02
   15.3832    650.06   1.70146  4.0040E-02
   15.3377    651.99   1.70115  3.9825E-02
   15.2924    653.92   1.70105  3.9589E-02
   15.2475    655.85   1.70087  3.9444E-02
   15.2027    657.78   1.70086  3.9498E-02
   15.1583    659.70   1.70065  3.9483E-02
   15.1141    661.63   1.70048  3.9660E-02
   15.0702    663.56   1.70013  3.9683E-02
   15.0265    665.49   1.69998  3.9452E-02
   14.9831    667.42   1.69987  3.9556E-02
   14.9399    669.35   1.69966  3.9937E-02
   14.8969    671.28   1.69920  4.0342E-02
   14.8542    673.21   1.69862  4.0302E-02
   14.8118    675.14   1.69817  4.0117E-02
   14.7696    677.07   1.69781  4.0290E-02
   14.7277    678.99   1.69721  4.0375E-02
   14.6859    680.93   1.69675  4.0375E-02
   14.6445    682.85   1.69596  4.0479E-02
   14.6032    684.78   1.69526  4.0296E-02
   14.5622    686.71   1.69456  3.9833E-02
   14.5214    688.64   1.69395  3.9587E-02
   14.4808    690.57   1.69333  3.9183E-02
   14.4405    692.50   1.69269  3.8624E-02
   14.4004    694.43   1.69226  3.7876E-02
   14.3605    696.35   1.69200  3.7276E-02
   14.3208    698.29   1.69173  3.6987E-02
   14.2814    700.21   1.69124  3.6551E-02
   14.2421    702.14   1.69095  3.5853E-02
   14.2031    704.07   1.69070  3.5188E-02
   14.1643    706.00   1.69058  3.4549E-02
   14.1257    707.93   1.69056  3.3984E-02
   14.0873    709.86   1.69059  3.3609E-02
   14.0492    711.78   1.69042  3.3357E-02
   14.0112    713.71   1.69029  3.2954E-02
   13.9734    715.65   1.69018  3.2527E-02
   13.9359    717.57   1.68998  3.2062E-02
   13.8985    719.50   1.68995  3.1512E-02
   13.8613    721.43   1.68999  3.1037E-02
   13.8244    723.36   1.69000  3.0570E-02
   13.7876    725.29   1.69010  3.0280E-02
   13.7510    727.22   1.69011  2.9966E-02
   13.7146    729.15   1.69019  2.9561E-02
   13.6785    731.07   1.69024  2.9224E-02
   13.6425    733.00   1.69041  2.8990E-02
   13.6067    734.93   1.69049  2.8836E-02
   13.5710    736.87   1.69060  2.8836E-02
   13.5356    738.79   1.69042  2.8918E-02
   13.5003    740.72   1.69017  2.8903E-02
   13.4653    742.65   1.68975  2.8534E-02
   13.4304    744.58   1.68954  2.7974E-02
   13.3957    746.51   1.68946  2.7378E-02
   13.3612    748.44   1.68951  2.6802E-02
   13.3268    750.37   1.68969  2.6473E-02
   13.2927    752.29   1.68971  2.6178E-02
   13.2587    754.22   1.68976  2.5881E-02
   13.2248    756.16   1.68987  2.5546E-02
   13.1912    758.08   1.68989  2.5193E-02
   13.1577    760.01   1.69005  2.4858E-02
   13.1244    761.94   1.69017  2.4651E-02
   13.0913    763.87   1.69023  2.4390E-02
   13.0583    765.80   1.69034  2.4154E-02
   13.0255    767.72   1.69039  2.3906E-02
   12.9928    769.66   1.69052  2.3582E-02
   12.9603    771.59   1.69066  2.3327E-02
   12.9280    773.51   1.69081  2.3112E-02
   12.8959    775.44   1.69092  2.2925E-02
   12.8639    777.37   1.69103  2.2770E-02
   12.8320    779.30   1.69115  2.2557E-02
   12.8003    781.23   1.69127  2.2342E-02
   12.7688    783.16   1.69139  2.2135E-02
   12.7374    785.09   1.69156  2.1994E-02
   12.7062    787.02   1.69164  2.1863E-02
   12.6751    788.95   1.69178  2.1681E-02
   12.6442    790.88   1.69191  2.1502E-02
   12.6135    792.80   1.69201  2.1418E-02
   12.5829    794.73   1.69209  2.1261E-02
   12.5524    796.66   1.69223  2.1073E-02
   12.5221    798.59   1.69233  2.0950E-02
   12.4919    800.52   1.69246  2.0805E-02
   12.4619    802.45   1.69256  2.0608E-02
   12.4320    804.38   1.69273  2.0417E-02
   12.4022    806.31   1.69293  2.0329E-02
   12.3726    808.24   1.69307  2.0270E-02
   12.3432    810.16   1.69317  2.0160E-02
   12.3139    812.09   1.69331  2.0038E-02
   12.2847    814.02   1.69345  1.9919E-02
   12.2556    815.95   1.69363  1.9807E-02
   12.2267    817.88   1.69382  1.9679E-02
   12.1980    819.81   1.69398  1.9608E-02
   12.1693    821.74   1.69421  1.9627E-02
   12.1408    823.67   1.69436  1.9591E-02
   12.1125    825.59   1.69448  1.9530E-02
   12.0842    827.53   1.69471  1.9568E-02
   12.0561    829.46   1.69485  1.9616E-02
   12.0282    831.38   1.69492  1.9641E-02
   12.0003    833.31   1.69508  1.9693E-02
   11.9726    835.24   1.69517  1.9697E-02
   11.9450    837.17   1.69531  1.9809E-02
   11.9176    839.10   1.69527  1.9982E-02
   11.8902    841.03   1.69523  2.0083E-02
   11.8630    842.96   1.69510  1.9924E-02
   11.8359    844.89   1.69520  1.9622E-02
   11.8090    846.81   1.69533  1.9537E-02
   11.7821    848.75   1.69549  1.9671E-02
   11.7554    850.67   1.69547  1.9630E-02
   11.7288    852.60   1.69557  1.9411E-02
   11.7023    854.53   1.69580  1.9309E-02
   11.6760    856.46   1.69598  1.9257E-02
   11.6497    858.39   1.69631  1.9296E-02
   11.6236    860.32   1.69652  1.9497E-02
   11.5976    862.25   1.69667  1.9756E-02
   11.5717    864.18   1.69677  2.0006E-02
   11.5460    866.10   1.69672  2.0237E-02
   11.5203    868.03   1.69675  2.0462E-02
   11.4948    869.96   1.69658  2.0700E-02
   11.4693    871.89   1.69647  2.0856E-02
   11.4440    873.82   1.69627  2.0857E-02
   11.4188    875.75   1.69615  2.0842E-02
   11.3937    877.68   1.69602  2.0883E-02
   11.3687    879.61   1.69586  2.0879E-02
   11.3438    881.54   1.69572  2.0780E-02
   11.3191    883.46   1.69553  2.0612E-02
   11.2944    885.39   1.69554  2.0387E-02
   11.2699    887.32   1.69548  2.0160E-02
   11.2454    889.25   1.69562  1.9963E-02
   11.2211    891.18   1.69568  1.9806E-02
   11.1968    893.11   1.69588  1.9754E-02
   11.1727    895.04   1.69596  1.9717E-02
   11.1487    896.97   1.69608  1.9654E-02
   11.1248    898.89   1.69619  1.9644E-02
   11.1009    900.83   1.69636  1.9684E-02
   11.0772    902.76   1.69643  1.9704E-02
   11.0536    904.68   1.69652  1.9768E-02
   11.0301    906.61   1.69658  1.9805E-02
   11.0067    908.54   1.69663  1.9796E-02
   10.9833    910.47   1.69680  1.9839E-02
   10.9601    912.40   1.69686  1.9946E-02
   10.9370    914.33   1.69692  2.0027E-02
   10.9140    916.25   1.69694  2.0096E-02
   10.8910    918.19   1.69706  2.0192E-02
   10.8682    920.12   1.69707  2.0300E-02
   10.8455    922.04   1.69706  2.0419E-02
   10.8228    923.98   1.69710  2.0562E-02
   10.8003    925.90   1.69699  2.0613E-02
   10.7778    927.83   1.69707  2.0610E-02
   10.7555    929.76   1.69702  2.0711E-02
   10.7332    931.69   1.69705  2.0803E-02
   10.7110    933.62   1.69705  2.0839E-02
   10.6889    935.55   1.69705  2.0956E-02
   10.6669    937.48   1.69702  2.1064E-02
   10.6450    939.41   1.69698  2.1130E-02
   10.6232    941.34   1.69695  2.1196E-02
   10.6015    943.26   1.69692  2.1246E-02
   10.5799    945.19   1.69687  2.1279E-02
   10.5583    947.12   1.69695  2.1338E-02
   10.5369    949.05   1.69689  2.1412E-02
   10.5155    950.98   1.69693  2.1555E-02
   10.4942    952.91   1.69688  2.1721E-02
   10.4730    954.84   1.69682  2.1808E-02
   10.4519    956.76   1.69676  2.1961E-02
   10.4309    958.69   1.69660  2.2155E-02
   10.4099    960.62   1.69645  2.2272E-02
   10.3890    962.56   1.69632  2.2248E-02
   10.3683    964.48   1.69616  2.2197E-02
   10.3476    966.41   1.69613  2.2256E-02
   10.3270    968.34   1.69600  2.2308E-02
   10.3064    970.27   1.69599  2.2341E-02
   10.2860    972.20   1.69581  2.2406E-02
   10.2656    974.13   1.69573  2.2501E-02
   10.2453    976.06   1.69555  2.2561E-02
   10.2251    977.99   1.69539  2.2487E-02
   10.2050    979.91   1.69524  2.2414E-02
   10.1849    981.85   1.69524  2.2420E-02
   10.1650    983.77   1.69504  2.2388E-02
   10.1451    985.70   1.69501  2.2311E-02
   10.1253    987.63   1.69492  2.2250E-02
   10.1055    989.56   1.69496  2.2294E-02
   10.0859    991.48   1.69478  2.2333E-02
   10.0663    993.41   1.69471  2.2333E-02
   10.0468    995.34   1.69456  2.2269E-02
   10.0273    997.28   1.69457  2.2216E-02
   10.0080    999.20   1.69442  2.2153E-02
    9.9887   1001.13   1.69442  2.2120E-02
    9.9695   1003.06   1.69436  2.2102E-02
    9.9504   1004.98   1.69426  2.2069E-02
    9.9313   1006.92   1.69423  2.2044E-02
    9.9123   1008.85   1.69417  2.1993E-02
    9.8934   1010.77   1.69408  2.1945E-02
    9.8745   1012.71   1.69412  2.1902E-02
    9.8558   1014.63   1.69401  2.1836E-02
    9.8371   1016.56   1.69399  2.1802E-02
    9.8184   1018.50   1.69405  2.1773E-02
    9.7999   1020.42   1.69395  2.1728E-02
    9.7814   1022.35   1.69400  2.1703E-02
    9.7630   1024.28   1.69394  2.1713E-02
    9.7446   1026.21   1.69396  2.1677E-02
    9.7263   1028.14   1.69397  2.1633E-02
    9.7081   1030.07   1.69399  2.1648E-02
    9.6900   1031.99   1.69394  2.1662E-02
    9.6719   1033.92   1.69399  2.1649E-02
    9.6539   1035.85   1.69396  2.1625E-02
    9.6359   1037.79   1.69411  2.1633E-02
    9.6181   1039.71   1.69405  2.1737E-02
    9.6003   1041.63   1.69407  2.1767E-02
    9.5825   1043.57   1.69416  2.1817E-02
    9.5648   1045.50   1.69417  2.1991E-02
    9.5472   1047.43   1.69414  2.2097E-02
    9.5297   1049.35   1.69406  2.2212E-02
    9.5122   1051.28   1.69400  2.2333E-02
    9.4947   1053.22   1.69403  2.2407E-02
    9.4774   1055.14   1.69387  2.2545E-02
    9.4601   1057.07   1.69381  2.2676E-02
    9.4429   1059.00   1.69363  2.2693E-02
    9.4257   1060.93   1.69361  2.2691E-02
    9.4086   1062.86   1.69357  2.2740E-02
    9.3916   1064.78   1.69348  2.2801E-02
    9.3746   1066.71   1.69344  2.2887E-02
    9.3576   1068.65   1.69348  2.2982E-02
    9.3408   1070.57   1.69335  2.3020E-02
    9.3240   1072.50   1.69335  2.3117E-02
    9.3072   1074.44   1.69345  2.3310E-02
    9.2906   1076.36   1.69327  2.3487E-02
    9.2739   1078.29   1.69337  2.3786E-02
    9.2574   1080.22   1.69311  2.4133E-02
    9.2409   1082.15   1.69287  2.4373E-02
    9.2244   1084.08   1.69272  2.4600E-02
    9.2081   1086.00   1.69228  2.4708E-02
    9.1917   1087.94   1.69225  2.4789E-02
    9.1755   1089.86   1.69193  2.5014E-02
    9.1593   1091.79   1.69165  2.5289E-02
    9.1431   1093.72   1.69132  2.5535E-02
    9.1270   1095.65   1.69088  2.5663E-02
    9.1110   1097.57   1.69042  2.5612E-02
    9.0950   1099.51   1.69014  2.5620E-02
    9.0791   1101.43   1.68974  2.5675E-02
    9.0632   1103.36   1.68942  2.5752E-02
    9.0474   1105.29   1.68895  2.5747E-02
    9.0316   1107.22   1.68859  2.5775E-02
    9.0159   1109.15   1.68806  2.5747E-02
    9.0002   1111.09   1.68764  2.5616E-02
    8.9846   1113.02   1.68720  2.5423E-02
    8.9691   1114.94   1.68675  2.5187E-02
    8.9536   1116.87   1.68646  2.4994E-02
    8.9382   1118.79   1.68602  2.4840E-02
    8.9228   1120.72   1.68568  2.4644E-02
    8.9075   1122.65   1.68520  2.4364E-02
    8.8922   1124.58   1.68482  2.4008E-02
    8.8769   1126.52   1.68462  2.3614E-02
    8.8618   1128.44   1.68422  2.3298E-02
    8.8467   1130.36   1.68393  2.2920E-02
    8.8316   1132.30   1.68375  2.2460E-02
    8.8166   1134.22   1.68352  2.2059E-02
    8.8016   1136.16   1.68342  2.1677E-02
    8.7867   1138.08   1.68322  2.1319E-02
    8.7718   1140.02   1.68312  2.0975E-02
    8.7570   1141.94   1.68291  2.0569E-02
    8.7422   1143.88   1.68285  2.0119E-02
    8.7275   1145.80   1.68274  1.9663E-02
    8.7128   1147.74   1.68278  1.9246E-02
    8.6982   1149.66   1.68274  1.8844E-02
    8.6836   1151.60   1.68283  1.8475E-02
    8.6691   1153.52   1.68289  1.8130E-02
    8.6547   1155.44   1.68287  1.7818E-02
    8.6402   1157.38   1.68301  1.7531E-02
    8.6258   1159.31   1.68307  1.7218E-02
    8.6115   1161.24   1.68312  1.6881E-02
    8.5972   1163.17   1.68329  1.6632E-02
    8.5830   1165.09   1.68333  1.6435E-02
    8.5688   1167.02   1.68346  1.6179E-02
    8.5547   1168.95   1.68353  1.5928E-02
    8.5406   1170.88   1.68364  1.5727E-02
    8.5265   1172.81   1.68378  1.5540E-02
    8.5125   1174.74   1.68389  1.5353E-02
    8.4986   1176.66   1.68395  1.5181E-02
    8.4847   1178.59   1.68404  1.5008E-02
    8.4708   1180.53   1.68418  1.4820E-02
    8.4570   1182.45   1.68425  1.4664E-02
    8.4432   1184.39   1.68439  1.4520E-02
    8.4295   1186.31   1.68445  1.4380E-02
    8.4158   1188.24   1.68459  1.4240E-02
    8.4022   1190.16   1.68465  1.4112E-02
    8.3886   1192.09   1.68475  1.3994E-02
    8.3750   1194.03   1.68487  1.3877E-02
    8.3615   1195.96   1.68492  1.3766E-02
    8.3480   1197.89   1.68504  1.3660E-02
    8.3346   1199.82   1.68508  1.3557E-02
    8.3212   1201.75   1.68519  1.3447E-02
    8.3079   1203.67   1.68523  1.3333E-02
    8.2946   1205.60   1.68535  1.3229E-02
    8.2814   1207.53   1.68540  1.3129E-02
    8.2682   1209.45   1.68548  1.3037E-02
    8.2550   1211.39   1.68559  1.2951E-02
    8.2419   1213.31   1.68562  1.2857E-02
    8.2288   1215.24   1.68569  1.2763E-02
    8.2157   1217.18   1.68580  1.2664E-02
    8.2027   1219.11   1.68588  1.2581E-02
    8.1898   1221.03   1.68591  1.2505E-02
    8.1769   1222.96   1.68598  1.2423E-02
    8.1640   1224.89   1.68609  1.2351E-02
    8.1512   1226.81   1.68611  1.2273E-02
    8.1384   1228.74   1.68617  1.2172E-02
    8.1256   1230.68   1.68629  1.2085E-02
    8.1129   1232.60   1.68632  1.2033E-02
    8.1002   1234.54   1.68642  1.1963E-02
    8.0876   1236.46   1.68645  1.1880E-02
    8.0750   1238.39   1.68652  1.1806E-02
    8.0624   1240.33   1.68662  1.1738E-02
    8.0499   1242.25   1.68665  1.1669E-02
    8.0374   1244.18   1.68675  1.1599E-02
    8.0250   1246.11   1.68678  1.1537E-02
    8.0126   1248.03   1.68684  1.1476E-02
    8.0002   1249.97   1.68694  1.1410E-02
