Optical constants of Gypsum, calculated from oscillator parameters
listed in Long et al. (1993) Infrared Physics, Vol. 34, No. 2,
191-201.  gypsum pellet
Wave.          Freq.
(microns)    (cm-1)        n           k
2.5000	4000.0000	1.3673	2.7769e-3
2.5025	3996.0000	1.3672	2.8012e-3
2.5050	3992.0000	1.3670	2.8260e-3
2.5075	3988.0000	1.3668	2.8512e-3
2.5100	3984.0000	1.3666	2.8770e-3
2.5126	3980.0000	1.3664	2.9032e-3
2.5151	3976.0000	1.3662	2.9299e-3
2.5176	3972.0000	1.3660	2.9572e-3
2.5202	3968.0000	1.3658	2.9850e-3
2.5227	3964.0000	1.3656	3.0134e-3
2.5253	3960.0000	1.3654	3.0423e-3
2.5278	3956.0000	1.3652	3.0718e-3
2.5304	3952.0000	1.3650	3.1020e-3
2.5329	3948.0000	1.3647	3.1328e-3
2.5355	3944.0000	1.3645	3.1642e-3
2.5381	3940.0000	1.3643	3.1964e-3
2.5407	3936.0000	1.3641	3.2292e-3
2.5432	3932.0000	1.3639	3.2628e-3
2.5458	3928.0000	1.3636	3.2971e-3
2.5484	3924.0000	1.3634	3.3322e-3
2.5510	3920.0000	1.3631	3.3681e-3
2.5536	3916.0000	1.3629	3.4048e-3
2.5562	3912.0000	1.3627	3.4424e-3
2.5589	3908.0000	1.3624	3.4808e-3
2.5615	3904.0000	1.3622	3.5202e-3
2.5641	3900.0000	1.3619	3.5606e-3
2.5667	3896.0000	1.3616	3.6019e-3
2.5694	3892.0000	1.3614	3.6443e-3
2.5720	3888.0000	1.3611	3.6878e-3
2.5747	3884.0000	1.3608	3.7323e-3
2.5773	3880.0000	1.3606	3.7781e-3
2.5800	3876.0000	1.3603	3.8250e-3
2.5826	3872.0000	1.3600	3.8732e-3
2.5853	3868.0000	1.3597	3.9227e-3
2.5880	3864.0000	1.3594	3.9735e-3
2.5907	3860.0000	1.3591	4.0257e-3
2.5934	3856.0000	1.3588	4.0794e-3
2.5961	3852.0000	1.3585	4.1347e-3
2.5988	3848.0000	1.3582	4.1915e-3
2.6015	3844.0000	1.3579	4.2500e-3
2.6042	3840.0000	1.3575	4.3103e-3
2.6069	3836.0000	1.3572	4.3724e-3
2.6096	3832.0000	1.3568	4.4363e-3
2.6123	3828.0000	1.3565	4.5023e-3
2.6151	3824.0000	1.3561	4.5703e-3
2.6178	3820.0000	1.3558	4.6405e-3
2.6205	3816.0000	1.3554	4.7130e-3
2.6233	3812.0000	1.3550	4.7879e-3
2.6261	3808.0000	1.3547	4.8654e-3
2.6288	3804.0000	1.3543	4.9454e-3
2.6316	3800.0000	1.3539	5.0282e-3
2.6344	3796.0000	1.3535	5.1140e-3
2.6371	3792.0000	1.3531	5.2028e-3
2.6399	3788.0000	1.3526	5.2948e-3
2.6427	3784.0000	1.3522	5.3903e-3
2.6455	3780.0000	1.3518	5.4893e-3
2.6483	3776.0000	1.3513	5.5921e-3
2.6511	3772.0000	1.3509	5.6989e-3
2.6539	3768.0000	1.3504	5.8100e-3
2.6567	3764.0000	1.3499	5.9256e-3
2.6596	3760.0000	1.3494	6.0459e-3
2.6624	3756.0000	1.3489	6.1712e-3
2.6652	3752.0000	1.3484	6.3019e-3
2.6681	3748.0000	1.3479	6.4383e-3
2.6709	3744.0000	1.3473	6.5808e-3
2.6738	3740.0000	1.3467	6.7297e-3
2.6767	3736.0000	1.3462	6.8854e-3
2.6795	3732.0000	1.3456	7.0485e-3
2.6824	3728.0000	1.3450	7.2195e-3
2.6853	3724.0000	1.3444	7.3988e-3
2.6882	3720.0000	1.3437	7.5872e-3
2.6911	3716.0000	1.3431	7.7852e-3
2.6940	3712.0000	1.3424	7.9936e-3
2.6969	3708.0000	1.3417	8.2131e-3
2.6998	3704.0000	1.3410	8.4447e-3
2.7027	3700.0000	1.3403	8.6893e-3
2.7056	3696.0000	1.3395	8.9480e-3
2.7086	3692.0000	1.3387	9.2219e-3
2.7115	3688.0000	1.3379	9.5124e-3
2.7144	3684.0000	1.3371	9.8209e-3
2.7174	3680.0000	1.3362	0.0101
2.7203	3676.0000	1.3353	0.0105
2.7233	3672.0000	1.3344	0.0109
2.7263	3668.0000	1.3335	0.0113
2.7293	3664.0000	1.3325	0.0117
2.7322	3660.0000	1.3315	0.0122
2.7352	3656.0000	1.3304	0.0126
2.7382	3652.0000	1.3294	0.0132
2.7412	3648.0000	1.3282	0.0137
2.7442	3644.0000	1.3271	0.0144
2.7473	3640.0000	1.3259	0.0150
2.7503	3636.0000	1.3246	0.0158
2.7533	3632.0000	1.3233	0.0166
2.7563	3628.0000	1.3220	0.0174
2.7594	3624.0000	1.3206	0.0184
2.7624	3620.0000	1.3192	0.0194
2.7655	3616.0000	1.3177	0.0206
2.7685	3612.0000	1.3162	0.0218
2.7716	3608.0000	1.3147	0.0232
2.7747	3604.0000	1.3131	0.0247
2.7778	3600.0000	1.3115	0.0264
2.7809	3596.0000	1.3099	0.0283
2.7840	3592.0000	1.3084	0.0304
2.7871	3588.0000	1.3069	0.0328
2.7902	3584.0000	1.3054	0.0354
2.7933	3580.0000	1.3042	0.0382
2.7964	3576.0000	1.3031	0.0413
2.7996	3572.0000	1.3023	0.0447
2.8027	3568.0000	1.3018	0.0483
2.8058	3564.0000	1.3018	0.0521
2.8090	3560.0000	1.3024	0.0559
2.8121	3556.0000	1.3035	0.0597
2.8153	3552.0000	1.3053	0.0632
2.8185	3548.0000	1.3076	0.0663
2.8217	3544.0000	1.3103	0.0687
2.8249	3540.0000	1.3133	0.0703
2.8281	3536.0000	1.3162	0.0711
2.8313	3532.0000	1.3188	0.0710
2.8345	3528.0000	1.3209	0.0703
2.8377	3524.0000	1.3222	0.0691
2.8409	3520.0000	1.3227	0.0677
2.8441	3516.0000	1.3224	0.0663
2.8474	3512.0000	1.3213	0.0650
2.8506	3508.0000	1.3195	0.0640
2.8539	3504.0000	1.3171	0.0635
2.8571	3500.0000	1.3142	0.0634
2.8604	3496.0000	1.3109	0.0639
2.8637	3492.0000	1.3071	0.0650
2.8670	3488.0000	1.3030	0.0668
2.8703	3484.0000	1.2987	0.0693
2.8736	3480.0000	1.2940	0.0726
2.8769	3476.0000	1.2892	0.0768
2.8802	3472.0000	1.2843	0.0819
2.8835	3468.0000	1.2793	0.0882
2.8868	3464.0000	1.2743	0.0957
2.8902	3460.0000	1.2695	0.1046
2.8935	3456.0000	1.2652	0.1152
2.8969	3452.0000	1.2616	0.1277
2.9002	3448.0000	1.2592	0.1422
2.9036	3444.0000	1.2586	0.1588
2.9070	3440.0000	1.2606	0.1775
2.9104	3436.0000	1.2661	0.1981
2.9138	3432.0000	1.2762	0.2197
2.9172	3428.0000	1.2917	0.2412
2.9206	3424.0000	1.3132	0.2607
2.9240	3420.0000	1.3403	0.2761
2.9274	3416.0000	1.3718	0.2851
2.9308	3412.0000	1.4053	0.2864
2.9343	3408.0000	1.4380	0.2795
2.9377	3404.0000	1.4671	0.2656
2.9412	3400.0000	1.4909	0.2467
2.9446	3396.0000	1.5087	0.2249
2.9481	3392.0000	1.5208	0.2023
2.9516	3388.0000	1.5279	0.1805
2.9551	3384.0000	1.5311	0.1603
2.9586	3380.0000	1.5314	0.1422
2.9621	3376.0000	1.5298	0.1262
2.9656	3372.0000	1.5268	0.1122
2.9691	3368.0000	1.5229	0.1001
2.9727	3364.0000	1.5186	0.0896
2.9762	3360.0000	1.5140	0.0806
2.9797	3356.0000	1.5093	0.0727
2.9833	3352.0000	1.5046	0.0659
2.9869	3348.0000	1.5001	0.0600
2.9904	3344.0000	1.4957	0.0549
2.9940	3340.0000	1.4915	0.0504
2.9976	3336.0000	1.4875	0.0464
3.0012	3332.0000	1.4837	0.0429
3.0048	3328.0000	1.4801	0.0398
3.0084	3324.0000	1.4766	0.0370
3.0120	3320.0000	1.4734	0.0345
3.0157	3316.0000	1.4703	0.0323
3.0193	3312.0000	1.4674	0.0303
3.0230	3308.0000	1.4646	0.0285
3.0266	3304.0000	1.4619	0.0269
3.0303	3300.0000	1.4594	0.0254
3.0340	3296.0000	1.4570	0.0241
3.0377	3292.0000	1.4548	0.0229
3.0414	3288.0000	1.4526	0.0218
3.0451	3284.0000	1.4506	0.0208
3.0488	3280.0000	1.4486	0.0198
3.0525	3276.0000	1.4467	0.0190
3.0562	3272.0000	1.4449	0.0182
3.0600	3268.0000	1.4432	0.0174
3.0637	3264.0000	1.4416	0.0168
3.0675	3260.0000	1.4400	0.0161
3.0713	3256.0000	1.4385	0.0156
3.0750	3252.0000	1.4371	0.0150
3.0788	3248.0000	1.4357	0.0145
3.0826	3244.0000	1.4343	0.0140
3.0864	3240.0000	1.4330	0.0136
3.0902	3236.0000	1.4318	0.0132
3.0941	3232.0000	1.4306	0.0128
3.0979	3228.0000	1.4295	0.0125
3.1017	3224.0000	1.4283	0.0121
3.1056	3220.0000	1.4273	0.0118
3.1095	3216.0000	1.4262	0.0115
3.1133	3212.0000	1.4252	0.0112
3.1172	3208.0000	1.4242	0.0110
3.1211	3204.0000	1.4233	0.0107
3.1250	3200.0000	1.4224	0.0105
3.1289	3196.0000	1.4215	0.0103
3.1328	3192.0000	1.4206	0.0101
3.1368	3188.0000	1.4198	9.8660e-3
3.1407	3184.0000	1.4190	9.6813e-3
3.1447	3180.0000	1.4182	9.5066e-3
3.1486	3176.0000	1.4174	9.3413e-3
3.1526	3172.0000	1.4166	9.1848e-3
3.1566	3168.0000	1.4159	9.0366e-3
3.1606	3164.0000	1.4152	8.8963e-3
3.1646	3160.0000	1.4145	8.7633e-3
3.1686	3156.0000	1.4138	8.6372e-3
3.1726	3152.0000	1.4131	8.5177e-3
3.1766	3148.0000	1.4125	8.4043e-3
3.1807	3144.0000	1.4119	8.2967e-3
3.1847	3140.0000	1.4112	8.1947e-3
3.1888	3136.0000	1.4106	8.0979e-3
3.1928	3132.0000	1.4100	8.0060e-3
3.1969	3128.0000	1.4095	7.9188e-3
3.2010	3124.0000	1.4089	7.8361e-3
3.2051	3120.0000	1.4083	7.7576e-3
3.2092	3116.0000	1.4078	7.6831e-3
3.2134	3112.0000	1.4072	7.6124e-3
3.2175	3108.0000	1.4067	7.5454e-3
3.2216	3104.0000	1.4062	7.4819e-3
3.2258	3100.0000	1.4057	7.4216e-3
3.2300	3096.0000	1.4052	7.3646e-3
3.2342	3092.0000	1.4047	7.3105e-3
3.2383	3088.0000	1.4042	7.2594e-3
3.2425	3084.0000	1.4038	7.2110e-3
3.2468	3080.0000	1.4033	7.1653e-3
3.2510	3076.0000	1.4028	7.1221e-3
3.2552	3072.0000	1.4024	7.0813e-3
3.2595	3068.0000	1.4020	7.0429e-3
3.2637	3064.0000	1.4015	7.0067e-3
3.2680	3060.0000	1.4011	6.9726e-3
3.2723	3056.0000	1.4007	6.9407e-3
3.2765	3052.0000	1.4003	6.9107e-3
3.2808	3048.0000	1.3998	6.8827e-3
3.2852	3044.0000	1.3994	6.8565e-3
3.2895	3040.0000	1.3990	6.8320e-3
3.2938	3036.0000	1.3986	6.8093e-3
3.2982	3032.0000	1.3983	6.7883e-3
3.3025	3028.0000	1.3979	6.7689e-3
3.3069	3024.0000	1.3975	6.7510e-3
3.3113	3020.0000	1.3971	6.7346e-3
3.3156	3016.0000	1.3968	6.7197e-3
3.3201	3012.0000	1.3964	6.7062e-3
3.3245	3008.0000	1.3960	6.6940e-3
3.3289	3004.0000	1.3957	6.6832e-3
3.3333	3000.0000	1.3953	6.6736e-3
3.3378	2996.0000	1.3950	6.6653e-3
3.3422	2992.0000	1.3946	6.6582e-3
3.3467	2988.0000	1.3943	6.6523e-3
3.3512	2984.0000	1.3939	6.6476e-3
3.3557	2980.0000	1.3936	6.6439e-3
3.3602	2976.0000	1.3933	6.6414e-3
3.3647	2972.0000	1.3929	6.6398e-3
3.3693	2968.0000	1.3926	6.6394e-3
3.3738	2964.0000	1.3923	6.6399e-3
3.3784	2960.0000	1.3920	6.6415e-3
3.3829	2956.0000	1.3917	6.6439e-3
3.3875	2952.0000	1.3913	6.6474e-3
3.3921	2948.0000	1.3910	6.6517e-3
3.3967	2944.0000	1.3907	6.6570e-3
3.4014	2940.0000	1.3904	6.6631e-3
3.4060	2936.0000	1.3901	6.6701e-3
3.4106	2932.0000	1.3898	6.6780e-3
3.4153	2928.0000	1.3895	6.6867e-3
3.4200	2924.0000	1.3892	6.6962e-3
3.4247	2920.0000	1.3889	6.7065e-3
3.4294	2916.0000	1.3886	6.7176e-3
3.4341	2912.0000	1.3883	6.7295e-3
3.4388	2908.0000	1.3880	6.7422e-3
3.4435	2904.0000	1.3878	6.7556e-3
3.4483	2900.0000	1.3875	6.7698e-3
3.4530	2896.0000	1.3872	6.7846e-3
3.4578	2892.0000	1.3869	6.8002e-3
3.4626	2888.0000	1.3866	6.8166e-3
3.4674	2884.0000	1.3863	6.8336e-3
3.4722	2880.0000	1.3861	6.8513e-3
3.4771	2876.0000	1.3858	6.8697e-3
3.4819	2872.0000	1.3855	6.8888e-3
3.4868	2868.0000	1.3852	6.9086e-3
3.4916	2864.0000	1.3850	6.9291e-3
3.4965	2860.0000	1.3847	6.9502e-3
3.5014	2856.0000	1.3844	6.9719e-3
3.5063	2852.0000	1.3842	6.9943e-3
3.5112	2848.0000	1.3839	7.0174e-3
3.5162	2844.0000	1.3836	7.0411e-3
3.5211	2840.0000	1.3834	7.0654e-3
3.5261	2836.0000	1.3831	7.0904e-3
3.5311	2832.0000	1.3828	7.1160e-3
3.5361	2828.0000	1.3826	7.1422e-3
3.5411	2824.0000	1.3823	7.1691e-3
3.5461	2820.0000	1.3820	7.1966e-3
3.5511	2816.0000	1.3818	7.2246e-3
3.5562	2812.0000	1.3815	7.2533e-3
3.5613	2808.0000	1.3813	7.2827e-3
3.5663	2804.0000	1.3810	7.3126e-3
3.5714	2800.0000	1.3807	7.3431e-3
3.5765	2796.0000	1.3805	7.3743e-3
3.5817	2792.0000	1.3802	7.4060e-3
3.5868	2788.0000	1.3800	7.4384e-3
3.5920	2784.0000	1.3797	7.4714e-3
3.5971	2780.0000	1.3795	7.5050e-3
3.6023	2776.0000	1.3792	7.5392e-3
3.6075	2772.0000	1.3789	7.5740e-3
3.6127	2768.0000	1.3787	7.6094e-3
3.6179	2764.0000	1.3784	7.6454e-3
3.6232	2760.0000	1.3782	7.6820e-3
3.6284	2756.0000	1.3779	7.7192e-3
3.6337	2752.0000	1.3777	7.7571e-3
3.6390	2748.0000	1.3774	7.7956e-3
3.6443	2744.0000	1.3772	7.8346e-3
3.6496	2740.0000	1.3769	7.8743e-3
3.6550	2736.0000	1.3767	7.9146e-3
3.6603	2732.0000	1.3764	7.9556e-3
3.6657	2728.0000	1.3762	7.9971e-3
3.6711	2724.0000	1.3759	8.0393e-3
3.6765	2720.0000	1.3757	8.0821e-3
3.6819	2716.0000	1.3754	8.1256e-3
3.6873	2712.0000	1.3752	8.1696e-3
3.6928	2708.0000	1.3749	8.2144e-3
3.6982	2704.0000	1.3747	8.2597e-3
3.7037	2700.0000	1.3744	8.3057e-3
3.7092	2696.0000	1.3742	8.3524e-3
3.7147	2692.0000	1.3739	8.3997e-3
3.7202	2688.0000	1.3737	8.4477e-3
3.7258	2684.0000	1.3734	8.4963e-3
3.7313	2680.0000	1.3732	8.5456e-3
3.7369	2676.0000	1.3729	8.5955e-3
3.7425	2672.0000	1.3727	8.6462e-3
3.7481	2668.0000	1.3724	8.6975e-3
3.7538	2664.0000	1.3722	8.7495e-3
3.7594	2660.0000	1.3719	8.8022e-3
3.7651	2656.0000	1.3717	8.8556e-3
3.7707	2652.0000	1.3714	8.9097e-3
3.7764	2648.0000	1.3712	8.9645e-3
3.7821	2644.0000	1.3709	9.0200e-3
3.7879	2640.0000	1.3706	9.0762e-3
3.7936	2636.0000	1.3704	9.1332e-3
3.7994	2632.0000	1.3701	9.1909e-3
3.8052	2628.0000	1.3699	9.2493e-3
3.8110	2624.0000	1.3696	9.3085e-3
3.8168	2620.0000	1.3694	9.3685e-3
3.8226	2616.0000	1.3691	9.4292e-3
3.8285	2612.0000	1.3689	9.4906e-3
3.8344	2608.0000	1.3686	9.5529e-3
3.8402	2604.0000	1.3684	9.6159e-3
3.8462	2600.0000	1.3681	9.6797e-3
3.8521	2596.0000	1.3678	9.7443e-3
3.8580	2592.0000	1.3676	9.8097e-3
3.8640	2588.0000	1.3673	9.8759e-3
3.8700	2584.0000	1.3671	9.9430e-3
3.8760	2580.0000	1.3668	0.0100
3.8820	2576.0000	1.3666	0.0101
3.8880	2572.0000	1.3663	0.0101
3.8941	2568.0000	1.3660	0.0102
3.9002	2564.0000	1.3658	0.0103
3.9063	2560.0000	1.3655	0.0104
3.9124	2556.0000	1.3653	0.0104
3.9185	2552.0000	1.3650	0.0105
3.9246	2548.0000	1.3647	0.0106
3.9308	2544.0000	1.3645	0.0107
3.9370	2540.0000	1.3642	0.0107
3.9432	2536.0000	1.3639	0.0108
3.9494	2532.0000	1.3637	0.0109
3.9557	2528.0000	1.3634	0.0110
3.9620	2524.0000	1.3631	0.0111
3.9683	2520.0000	1.3629	0.0111
3.9746	2516.0000	1.3626	0.0112
3.9809	2512.0000	1.3623	0.0113
3.9872	2508.0000	1.3621	0.0114
3.9936	2504.0000	1.3618	0.0115
4.0000	2500.0000	1.3615	0.0116
4.0064	2496.0000	1.3612	0.0116
4.0128	2492.0000	1.3610	0.0117
4.0193	2488.0000	1.3607	0.0118
4.0258	2484.0000	1.3604	0.0119
4.0323	2480.0000	1.3601	0.0120
4.0388	2476.0000	1.3599	0.0121
4.0453	2472.0000	1.3596	0.0122
4.0519	2468.0000	1.3593	0.0123
4.0584	2464.0000	1.3590	0.0124
4.0650	2460.0000	1.3588	0.0125
4.0717	2456.0000	1.3585	0.0126
4.0783	2452.0000	1.3582	0.0127
4.0850	2448.0000	1.3579	0.0128
4.0917	2444.0000	1.3576	0.0129
4.0984	2440.0000	1.3573	0.0130
4.1051	2436.0000	1.3571	0.0131
4.1118	2432.0000	1.3568	0.0132
4.1186	2428.0000	1.3565	0.0133
4.1254	2424.0000	1.3562	0.0134
4.1322	2420.0000	1.3559	0.0135
4.1391	2416.0000	1.3556	0.0136
4.1459	2412.0000	1.3553	0.0138
4.1528	2408.0000	1.3550	0.0139
4.1597	2404.0000	1.3547	0.0140
4.1667	2400.0000	1.3544	0.0141
4.1736	2396.0000	1.3541	0.0142
4.1806	2392.0000	1.3538	0.0143
4.1876	2388.0000	1.3535	0.0145
4.1946	2384.0000	1.3532	0.0146
4.2017	2380.0000	1.3529	0.0147
4.2088	2376.0000	1.3526	0.0148
4.2159	2372.0000	1.3523	0.0150
4.2230	2368.0000	1.3520	0.0151
4.2301	2364.0000	1.3517	0.0152
4.2373	2360.0000	1.3514	0.0154
4.2445	2356.0000	1.3511	0.0155
4.2517	2352.0000	1.3508	0.0156
4.2589	2348.0000	1.3505	0.0158
4.2662	2344.0000	1.3502	0.0159
4.2735	2340.0000	1.3499	0.0161
4.2808	2336.0000	1.3496	0.0162
4.2882	2332.0000	1.3492	0.0164
4.2955	2328.0000	1.3489	0.0165
4.3029	2324.0000	1.3486	0.0167
4.3103	2320.0000	1.3483	0.0168
4.3178	2316.0000	1.3480	0.0170
4.3253	2312.0000	1.3477	0.0171
4.3328	2308.0000	1.3473	0.0173
4.3403	2304.0000	1.3470	0.0174
4.3478	2300.0000	1.3467	0.0176
4.3554	2296.0000	1.3464	0.0178
4.3630	2292.0000	1.3460	0.0179
4.3706	2288.0000	1.3457	0.0181
4.3783	2284.0000	1.3454	0.0183
4.3860	2280.0000	1.3450	0.0184
4.3937	2276.0000	1.3447	0.0186
4.4014	2272.0000	1.3444	0.0188
4.4092	2268.0000	1.3440	0.0190
4.4170	2264.0000	1.3437	0.0191
4.4248	2260.0000	1.3434	0.0193
4.4326	2256.0000	1.3430	0.0195
4.4405	2252.0000	1.3427	0.0197
4.4484	2248.0000	1.3424	0.0199
4.4563	2244.0000	1.3420	0.0201
4.4643	2240.0000	1.3417	0.0203
4.4723	2236.0000	1.3413	0.0205
4.4803	2232.0000	1.3410	0.0207
4.4883	2228.0000	1.3406	0.0209
4.4964	2224.0000	1.3403	0.0211
4.5045	2220.0000	1.3399	0.0213
4.5126	2216.0000	1.3396	0.0215
4.5208	2212.0000	1.3392	0.0217
4.5290	2208.0000	1.3389	0.0219
4.5372	2204.0000	1.3385	0.0222
4.5455	2200.0000	1.3382	0.0224
4.5537	2196.0000	1.3378	0.0226
4.5620	2192.0000	1.3375	0.0228
4.5704	2188.0000	1.3371	0.0231
4.5788	2184.0000	1.3368	0.0233
4.5872	2180.0000	1.3364	0.0235
4.5956	2176.0000	1.3360	0.0238
4.6041	2172.0000	1.3357	0.0240
4.6125	2168.0000	1.3353	0.0243
4.6211	2164.0000	1.3350	0.0245
4.6296	2160.0000	1.3346	0.0248
4.6382	2156.0000	1.3342	0.0250
4.6468	2152.0000	1.3339	0.0253
4.6555	2148.0000	1.3335	0.0255
4.6642	2144.0000	1.3331	0.0258
4.6729	2140.0000	1.3328	0.0261
4.6816	2136.0000	1.3324	0.0263
4.6904	2132.0000	1.3320	0.0266
4.6992	2128.0000	1.3316	0.0269
4.7081	2124.0000	1.3313	0.0272
4.7170	2120.0000	1.3309	0.0275
4.7259	2116.0000	1.3305	0.0278
4.7348	2112.0000	1.3301	0.0281
4.7438	2108.0000	1.3298	0.0284
4.7529	2104.0000	1.3294	0.0287
4.7619	2100.0000	1.3290	0.0290
4.7710	2096.0000	1.3287	0.0293
4.7801	2092.0000	1.3283	0.0296
4.7893	2088.0000	1.3279	0.0299
4.7985	2084.0000	1.3275	0.0302
4.8077	2080.0000	1.3271	0.0305
4.8170	2076.0000	1.3268	0.0309
4.8263	2072.0000	1.3264	0.0312
4.8356	2068.0000	1.3260	0.0315
4.8450	2064.0000	1.3256	0.0319
4.8544	2060.0000	1.3253	0.0322
4.8638	2056.0000	1.3249	0.0326
4.8733	2052.0000	1.3245	0.0329
4.8828	2048.0000	1.3241	0.0333
4.8924	2044.0000	1.3238	0.0336
4.9020	2040.0000	1.3234	0.0340
4.9116	2036.0000	1.3230	0.0344
4.9213	2032.0000	1.3226	0.0347
4.9310	2028.0000	1.3222	0.0351
4.9407	2024.0000	1.3219	0.0355
4.9505	2020.0000	1.3215	0.0359
4.9603	2016.0000	1.3211	0.0363
4.9702	2012.0000	1.3208	0.0367
4.9801	2008.0000	1.3204	0.0371
4.9900	2004.0000	1.3200	0.0375
5.0000	2000.0000	1.3196	0.0379
5.0050	1998.0000	1.3195	0.0381
5.0100	1996.0000	1.3193	0.0383
5.0150	1994.0000	1.3191	0.0385
5.0201	1992.0000	1.3189	0.0387
5.0251	1990.0000	1.3187	0.0389
5.0302	1988.0000	1.3185	0.0391
5.0352	1986.0000	1.3184	0.0393
5.0403	1984.0000	1.3182	0.0395
5.0454	1982.0000	1.3180	0.0397
5.0505	1980.0000	1.3178	0.0399
5.0556	1978.0000	1.3176	0.0402
5.0607	1976.0000	1.3174	0.0404
5.0659	1974.0000	1.3173	0.0406
5.0710	1972.0000	1.3171	0.0408
5.0761	1970.0000	1.3169	0.0410
5.0813	1968.0000	1.3167	0.0412
5.0865	1966.0000	1.3165	0.0415
5.0916	1964.0000	1.3164	0.0417
5.0968	1962.0000	1.3162	0.0419
5.1020	1960.0000	1.3160	0.0421
5.1073	1958.0000	1.3158	0.0423
5.1125	1956.0000	1.3157	0.0426
5.1177	1954.0000	1.3155	0.0428
5.1230	1952.0000	1.3153	0.0430
5.1282	1950.0000	1.3151	0.0432
5.1335	1948.0000	1.3149	0.0435
5.1387	1946.0000	1.3148	0.0437
5.1440	1944.0000	1.3146	0.0439
5.1493	1942.0000	1.3144	0.0441
5.1546	1940.0000	1.3142	0.0444
5.1600	1938.0000	1.3141	0.0446
5.1653	1936.0000	1.3139	0.0448
5.1706	1934.0000	1.3137	0.0451
5.1760	1932.0000	1.3136	0.0453
5.1813	1930.0000	1.3134	0.0455
5.1867	1928.0000	1.3132	0.0458
5.1921	1926.0000	1.3130	0.0460
5.1975	1924.0000	1.3129	0.0462
5.2029	1922.0000	1.3127	0.0465
5.2083	1920.0000	1.3125	0.0467
5.2138	1918.0000	1.3124	0.0469
5.2192	1916.0000	1.3122	0.0472
5.2247	1914.0000	1.3120	0.0474
5.2301	1912.0000	1.3119	0.0477
5.2356	1910.0000	1.3117	0.0479
5.2411	1908.0000	1.3115	0.0481
5.2466	1906.0000	1.3114	0.0484
5.2521	1904.0000	1.3112	0.0486
5.2576	1902.0000	1.3110	0.0489
5.2632	1900.0000	1.3109	0.0491
5.2687	1898.0000	1.3107	0.0493
5.2743	1896.0000	1.3106	0.0496
5.2798	1894.0000	1.3104	0.0498
5.2854	1892.0000	1.3102	0.0501
5.2910	1890.0000	1.3101	0.0503
5.2966	1888.0000	1.3099	0.0505
5.3022	1886.0000	1.3097	0.0508
5.3079	1884.0000	1.3096	0.0510
5.3135	1882.0000	1.3094	0.0513
5.3191	1880.0000	1.3093	0.0515
5.3248	1878.0000	1.3091	0.0518
5.3305	1876.0000	1.3090	0.0520
5.3362	1874.0000	1.3088	0.0523
5.3419	1872.0000	1.3086	0.0525
5.3476	1870.0000	1.3085	0.0527
5.3533	1868.0000	1.3083	0.0530
5.3591	1866.0000	1.3082	0.0532
5.3648	1864.0000	1.3080	0.0535
5.3706	1862.0000	1.3079	0.0537
5.3763	1860.0000	1.3077	0.0540
5.3821	1858.0000	1.3075	0.0542
5.3879	1856.0000	1.3074	0.0545
5.3937	1854.0000	1.3072	0.0547
5.3996	1852.0000	1.3071	0.0550
5.4054	1850.0000	1.3069	0.0552
5.4113	1848.0000	1.3068	0.0554
5.4171	1846.0000	1.3066	0.0557
5.4230	1844.0000	1.3065	0.0559
5.4289	1842.0000	1.3063	0.0562
5.4348	1840.0000	1.3061	0.0564
5.4407	1838.0000	1.3060	0.0567
5.4466	1836.0000	1.3058	0.0569
5.4526	1834.0000	1.3057	0.0571
5.4585	1832.0000	1.3055	0.0574
5.4645	1830.0000	1.3054	0.0576
5.4705	1828.0000	1.3052	0.0579
5.4765	1826.0000	1.3051	0.0581
5.4825	1824.0000	1.3049	0.0583
5.4885	1822.0000	1.3047	0.0586
5.4945	1820.0000	1.3046	0.0588
5.5006	1818.0000	1.3044	0.0590
5.5066	1816.0000	1.3043	0.0593
5.5127	1814.0000	1.3041	0.0595
5.5188	1812.0000	1.3039	0.0597
5.5249	1810.0000	1.3038	0.0600
