Calcite "pellet" optical constants calculated from Long et al. Infrared
Phys., 34, 191-301, 1993.
    wave.    Freq.      real       imag.
  (microns)  (cm-1)    index       index
    2.5000  4000.00  1.4525E+00  2.7447E-04
    2.5025  3996.00  1.4524E+00  2.7546E-04
    2.5050  3992.00  1.4524E+00  2.7645E-04
    2.5075  3988.00  1.4524E+00  2.7744E-04
    2.5100  3984.00  1.4523E+00  2.7844E-04
    2.5126  3980.00  1.4523E+00  2.7945E-04
    2.5151  3976.00  1.4522E+00  2.8046E-04
    2.5176  3972.00  1.4522E+00  2.8148E-04
    2.5202  3968.00  1.4521E+00  2.8250E-04
    2.5227  3964.00  1.4521E+00  2.8352E-04
    2.5253  3960.00  1.4520E+00  2.8456E-04
    2.5278  3956.00  1.4520E+00  2.8559E-04
    2.5304  3952.00  1.4519E+00  2.8664E-04
    2.5329  3948.00  1.4519E+00  2.8768E-04
    2.5355  3944.00  1.4518E+00  2.8873E-04
    2.5381  3940.00  1.4518E+00  2.8979E-04
    2.5407  3936.00  1.4517E+00  2.9086E-04
    2.5432  3932.00  1.4517E+00  2.9192E-04
    2.5458  3928.00  1.4516E+00  2.9300E-04
    2.5484  3924.00  1.4516E+00  2.9408E-04
    2.5510  3920.00  1.4515E+00  2.9516E-04
    2.5536  3916.00  1.4515E+00  2.9625E-04
    2.5562  3912.00  1.4514E+00  2.9735E-04
    2.5589  3908.00  1.4514E+00  2.9845E-04
    2.5615  3904.00  1.4513E+00  2.9956E-04
    2.5641  3900.00  1.4513E+00  3.0067E-04
    2.5667  3896.00  1.4512E+00  3.0179E-04
    2.5694  3892.00  1.4512E+00  3.0292E-04
    2.5720  3888.00  1.4511E+00  3.0405E-04
    2.5747  3884.00  1.4511E+00  3.0519E-04
    2.5773  3880.00  1.4510E+00  3.0633E-04
    2.5800  3876.00  1.4510E+00  3.0748E-04
    2.5826  3872.00  1.4509E+00  3.0863E-04
    2.5853  3868.00  1.4509E+00  3.0979E-04
    2.5880  3864.00  1.4508E+00  3.1096E-04
    2.5907  3860.00  1.4508E+00  3.1213E-04
    2.5934  3856.00  1.4507E+00  3.1331E-04
    2.5961  3852.00  1.4507E+00  3.1450E-04
    2.5988  3848.00  1.4506E+00  3.1569E-04
    2.6015  3844.00  1.4506E+00  3.1689E-04
    2.6042  3840.00  1.4505E+00  3.1809E-04
    2.6069  3836.00  1.4505E+00  3.1930E-04
    2.6096  3832.00  1.4504E+00  3.2052E-04
    2.6123  3828.00  1.4504E+00  3.2174E-04
    2.6151  3824.00  1.4503E+00  3.2297E-04
    2.6178  3820.00  1.4502E+00  3.2421E-04
    2.6205  3816.00  1.4502E+00  3.2545E-04
    2.6233  3812.00  1.4501E+00  3.2670E-04
    2.6261  3808.00  1.4501E+00  3.2795E-04
    2.6288  3804.00  1.4500E+00  3.2922E-04
    2.6316  3800.00  1.4500E+00  3.3049E-04
    2.6344  3796.00  1.4499E+00  3.3176E-04
    2.6371  3792.00  1.4499E+00  3.3305E-04
    2.6399  3788.00  1.4498E+00  3.3434E-04
    2.6427  3784.00  1.4498E+00  3.3563E-04
    2.6455  3780.00  1.4497E+00  3.3694E-04
    2.6483  3776.00  1.4496E+00  3.3825E-04
    2.6511  3772.00  1.4496E+00  3.3957E-04
    2.6539  3768.00  1.4495E+00  3.4089E-04
    2.6567  3764.00  1.4495E+00  3.4223E-04
    2.6596  3760.00  1.4494E+00  3.4357E-04
    2.6624  3756.00  1.4494E+00  3.4491E-04
    2.6652  3752.00  1.4493E+00  3.4627E-04
    2.6681  3748.00  1.4492E+00  3.4763E-04
    2.6709  3744.00  1.4492E+00  3.4900E-04
    2.6738  3740.00  1.4491E+00  3.5038E-04
    2.6767  3736.00  1.4491E+00  3.5176E-04
    2.6795  3732.00  1.4490E+00  3.5316E-04
    2.6824  3728.00  1.4490E+00  3.5456E-04
    2.6853  3724.00  1.4489E+00  3.5596E-04
    2.6882  3720.00  1.4488E+00  3.5738E-04
    2.6911  3716.00  1.4488E+00  3.5880E-04
    2.6940  3712.00  1.4487E+00  3.6023E-04
    2.6969  3708.00  1.4487E+00  3.6167E-04
    2.6998  3704.00  1.4486E+00  3.6312E-04
    2.7027  3700.00  1.4485E+00  3.6458E-04
    2.7056  3696.00  1.4485E+00  3.6604E-04
    2.7086  3692.00  1.4484E+00  3.6751E-04
    2.7115  3688.00  1.4484E+00  3.6899E-04
    2.7144  3684.00  1.4483E+00  3.7048E-04
    2.7174  3680.00  1.4482E+00  3.7198E-04
    2.7203  3676.00  1.4482E+00  3.7348E-04
    2.7233  3672.00  1.4481E+00  3.7500E-04
    2.7263  3668.00  1.4480E+00  3.7652E-04
    2.7293  3664.00  1.4480E+00  3.7805E-04
    2.7322  3660.00  1.4479E+00  3.7959E-04
    2.7352  3656.00  1.4479E+00  3.8114E-04
    2.7382  3652.00  1.4478E+00  3.8270E-04
    2.7412  3648.00  1.4477E+00  3.8426E-04
    2.7442  3644.00  1.4477E+00  3.8584E-04
    2.7473  3640.00  1.4476E+00  3.8742E-04
    2.7503  3636.00  1.4475E+00  3.8902E-04
    2.7533  3632.00  1.4475E+00  3.9062E-04
    2.7563  3628.00  1.4474E+00  3.9223E-04
    2.7594  3624.00  1.4473E+00  3.9385E-04
    2.7624  3620.00  1.4473E+00  3.9548E-04
    2.7655  3616.00  1.4472E+00  3.9712E-04
    2.7685  3612.00  1.4471E+00  3.9877E-04
    2.7716  3608.00  1.4471E+00  4.0043E-04
    2.7747  3604.00  1.4470E+00  4.0210E-04
    2.7778  3600.00  1.4469E+00  4.0378E-04
    2.7809  3596.00  1.4469E+00  4.0547E-04
    2.7840  3592.00  1.4468E+00  4.0717E-04
    2.7871  3588.00  1.4467E+00  4.0887E-04
    2.7902  3584.00  1.4467E+00  4.1059E-04
    2.7933  3580.00  1.4466E+00  4.1232E-04
    2.7964  3576.00  1.4465E+00  4.1406E-04
    2.7996  3572.00  1.4465E+00  4.1581E-04
    2.8027  3568.00  1.4464E+00  4.1757E-04
    2.8058  3564.00  1.4463E+00  4.1934E-04
    2.8090  3560.00  1.4463E+00  4.2112E-04
    2.8121  3556.00  1.4462E+00  4.2291E-04
    2.8153  3552.00  1.4461E+00  4.2471E-04
    2.8185  3548.00  1.4460E+00  4.2652E-04
    2.8217  3544.00  1.4460E+00  4.2834E-04
    2.8249  3540.00  1.4459E+00  4.3018E-04
    2.8281  3536.00  1.4458E+00  4.3202E-04
    2.8313  3532.00  1.4458E+00  4.3388E-04
    2.8345  3528.00  1.4457E+00  4.3575E-04
    2.8377  3524.00  1.4456E+00  4.3762E-04
    2.8409  3520.00  1.4455E+00  4.3951E-04
    2.8441  3516.00  1.4455E+00  4.4141E-04
    2.8474  3512.00  1.4454E+00  4.4333E-04
    2.8506  3508.00  1.4453E+00  4.4525E-04
    2.8539  3504.00  1.4453E+00  4.4719E-04
    2.8571  3500.00  1.4452E+00  4.4914E-04
    2.8604  3496.00  1.4451E+00  4.5110E-04
    2.8637  3492.00  1.4450E+00  4.5307E-04
    2.8670  3488.00  1.4450E+00  4.5505E-04
    2.8703  3484.00  1.4449E+00  4.5705E-04
    2.8736  3480.00  1.4448E+00  4.5906E-04
    2.8769  3476.00  1.4447E+00  4.6108E-04
    2.8802  3472.00  1.4447E+00  4.6311E-04
    2.8835  3468.00  1.4446E+00  4.6516E-04
    2.8868  3464.00  1.4445E+00  4.6721E-04
    2.8902  3460.00  1.4444E+00  4.6929E-04
    2.8935  3456.00  1.4443E+00  4.7137E-04
    2.8969  3452.00  1.4443E+00  4.7347E-04
    2.9002  3448.00  1.4442E+00  4.7558E-04
    2.9036  3444.00  1.4441E+00  4.7770E-04
    2.9070  3440.00  1.4440E+00  4.7984E-04
    2.9104  3436.00  1.4439E+00  4.8199E-04
    2.9138  3432.00  1.4439E+00  4.8415E-04
    2.9172  3428.00  1.4438E+00  4.8633E-04
    2.9206  3424.00  1.4437E+00  4.8852E-04
    2.9240  3420.00  1.4436E+00  4.9073E-04
    2.9274  3416.00  1.4435E+00  4.9295E-04
    2.9308  3412.00  1.4435E+00  4.9518E-04
    2.9343  3408.00  1.4434E+00  4.9743E-04
    2.9377  3404.00  1.4433E+00  4.9969E-04
    2.9412  3400.00  1.4432E+00  5.0197E-04
    2.9446  3396.00  1.4431E+00  5.0426E-04
    2.9481  3392.00  1.4431E+00  5.0656E-04
    2.9516  3388.00  1.4430E+00  5.0888E-04
    2.9551  3384.00  1.4429E+00  5.1122E-04
    2.9586  3380.00  1.4428E+00  5.1357E-04
    2.9621  3376.00  1.4427E+00  5.1594E-04
    2.9656  3372.00  1.4426E+00  5.1832E-04
    2.9691  3368.00  1.4425E+00  5.2071E-04
    2.9727  3364.00  1.4425E+00  5.2313E-04
    2.9762  3360.00  1.4424E+00  5.2555E-04
    2.9797  3356.00  1.4423E+00  5.2800E-04
    2.9833  3352.00  1.4422E+00  5.3046E-04
    2.9869  3348.00  1.4421E+00  5.3293E-04
    2.9904  3344.00  1.4420E+00  5.3543E-04
    2.9940  3340.00  1.4419E+00  5.3794E-04
    2.9976  3336.00  1.4418E+00  5.4046E-04
    3.0012  3332.00  1.4418E+00  5.4300E-04
    3.0048  3328.00  1.4417E+00  5.4556E-04
    3.0084  3324.00  1.4416E+00  5.4814E-04
    3.0120  3320.00  1.4415E+00  5.5073E-04
    3.0157  3316.00  1.4414E+00  5.5334E-04
    3.0193  3312.00  1.4413E+00  5.5597E-04
    3.0230  3308.00  1.4412E+00  5.5861E-04
    3.0266  3304.00  1.4411E+00  5.6128E-04
    3.0303  3300.00  1.4410E+00  5.6396E-04
    3.0340  3296.00  1.4409E+00  5.6666E-04
    3.0377  3292.00  1.4408E+00  5.6938E-04
    3.0414  3288.00  1.4407E+00  5.7211E-04
    3.0451  3284.00  1.4406E+00  5.7487E-04
    3.0488  3280.00  1.4406E+00  5.7764E-04
    3.0525  3276.00  1.4405E+00  5.8043E-04
    3.0562  3272.00  1.4404E+00  5.8324E-04
    3.0600  3268.00  1.4403E+00  5.8607E-04
    3.0637  3264.00  1.4402E+00  5.8892E-04
    3.0675  3260.00  1.4401E+00  5.9179E-04
    3.0713  3256.00  1.4400E+00  5.9468E-04
    3.0750  3252.00  1.4399E+00  5.9759E-04
    3.0788  3248.00  1.4398E+00  6.0052E-04
    3.0826  3244.00  1.4397E+00  6.0347E-04
    3.0864  3240.00  1.4396E+00  6.0644E-04
    3.0902  3236.00  1.4395E+00  6.0943E-04
    3.0941  3232.00  1.4394E+00  6.1244E-04
    3.0979  3228.00  1.4393E+00  6.1548E-04
    3.1017  3224.00  1.4392E+00  6.1853E-04
    3.1056  3220.00  1.4391E+00  6.2160E-04
    3.1095  3216.00  1.4390E+00  6.2470E-04
    3.1133  3212.00  1.4389E+00  6.2782E-04
    3.1172  3208.00  1.4388E+00  6.3096E-04
    3.1211  3204.00  1.4387E+00  6.3412E-04
    3.1250  3200.00  1.4386E+00  6.3731E-04
    3.1289  3196.00  1.4385E+00  6.4052E-04
    3.1328  3192.00  1.4383E+00  6.4375E-04
    3.1368  3188.00  1.4382E+00  6.4700E-04
    3.1407  3184.00  1.4381E+00  6.5028E-04
    3.1447  3180.00  1.4380E+00  6.5358E-04
    3.1486  3176.00  1.4379E+00  6.5691E-04
    3.1526  3172.00  1.4378E+00  6.6025E-04
    3.1566  3168.00  1.4377E+00  6.6363E-04
    3.1606  3164.00  1.4376E+00  6.6703E-04
    3.1646  3160.00  1.4375E+00  6.7045E-04
    3.1686  3156.00  1.4374E+00  6.7389E-04
    3.1726  3152.00  1.4373E+00  6.7737E-04
    3.1766  3148.00  1.4372E+00  6.8086E-04
    3.1807  3144.00  1.4370E+00  6.8439E-04
    3.1847  3140.00  1.4369E+00  6.8793E-04
    3.1888  3136.00  1.4368E+00  6.9151E-04
    3.1928  3132.00  1.4367E+00  6.9511E-04
    3.1969  3128.00  1.4366E+00  6.9874E-04
    3.2010  3124.00  1.4365E+00  7.0239E-04
    3.2051  3120.00  1.4364E+00  7.0608E-04
    3.2092  3116.00  1.4362E+00  7.0978E-04
    3.2134  3112.00  1.4361E+00  7.1352E-04
    3.2175  3108.00  1.4360E+00  7.1729E-04
    3.2216  3104.00  1.4359E+00  7.2108E-04
    3.2258  3100.00  1.4358E+00  7.2490E-04
    3.2300  3096.00  1.4357E+00  7.2875E-04
    3.2342  3092.00  1.4355E+00  7.3263E-04
    3.2383  3088.00  1.4354E+00  7.3654E-04
    3.2425  3084.00  1.4353E+00  7.4048E-04
    3.2468  3080.00  1.4352E+00  7.4445E-04
    3.2510  3076.00  1.4350E+00  7.4845E-04
    3.2552  3072.00  1.4349E+00  7.5248E-04
    3.2595  3068.00  1.4348E+00  7.5654E-04
    3.2637  3064.00  1.4347E+00  7.6063E-04
    3.2680  3060.00  1.4346E+00  7.6475E-04
    3.2723  3056.00  1.4344E+00  7.6890E-04
    3.2765  3052.00  1.4343E+00  7.7309E-04
    3.2808  3048.00  1.4342E+00  7.7731E-04
    3.2852  3044.00  1.4340E+00  7.8156E-04
    3.2895  3040.00  1.4339E+00  7.8585E-04
    3.2938  3036.00  1.4338E+00  7.9016E-04
    3.2982  3032.00  1.4337E+00  7.9452E-04
    3.3025  3028.00  1.4335E+00  7.9890E-04
    3.3069  3024.00  1.4334E+00  8.0332E-04
    3.3113  3020.00  1.4333E+00  8.0778E-04
    3.3156  3016.00  1.4331E+00  8.1227E-04
    3.3201  3012.00  1.4330E+00  8.1680E-04
    3.3245  3008.00  1.4329E+00  8.2136E-04
    3.3289  3004.00  1.4327E+00  8.2596E-04
    3.3333  3000.00  1.4326E+00  8.3059E-04
    3.3378  2996.00  1.4325E+00  8.3526E-04
    3.3422  2992.00  1.4323E+00  8.3997E-04
    3.3467  2988.00  1.4322E+00  8.4472E-04
    3.3512  2984.00  1.4321E+00  8.4951E-04
    3.3557  2980.00  1.4319E+00  8.5433E-04
    3.3602  2976.00  1.4318E+00  8.5920E-04
    3.3647  2972.00  1.4316E+00  8.6410E-04
    3.3693  2968.00  1.4315E+00  8.6904E-04
    3.3738  2964.00  1.4314E+00  8.7403E-04
    3.3784  2960.00  1.4312E+00  8.7905E-04
    3.3829  2956.00  1.4311E+00  8.8412E-04
    3.3875  2952.00  1.4309E+00  8.8923E-04
    3.3921  2948.00  1.4308E+00  8.9438E-04
    3.3967  2944.00  1.4306E+00  8.9957E-04
    3.4014  2940.00  1.4305E+00  9.0480E-04
    3.4060  2936.00  1.4303E+00  9.1008E-04
    3.4106  2932.00  1.4302E+00  9.1541E-04
    3.4153  2928.00  1.4300E+00  9.2077E-04
    3.4200  2924.00  1.4299E+00  9.2618E-04
    3.4247  2920.00  1.4297E+00  9.3164E-04
    3.4294  2916.00  1.4296E+00  9.3715E-04
    3.4341  2912.00  1.4294E+00  9.4270E-04
    3.4388  2908.00  1.4293E+00  9.4829E-04
    3.4435  2904.00  1.4291E+00  9.5394E-04
    3.4483  2900.00  1.4290E+00  9.5963E-04
    3.4530  2896.00  1.4288E+00  9.6537E-04
    3.4578  2892.00  1.4287E+00  9.7117E-04
    3.4626  2888.00  1.4285E+00  9.7701E-04
    3.4674  2884.00  1.4283E+00  9.8290E-04
    3.4722  2880.00  1.4282E+00  9.8884E-04
    3.4771  2876.00  1.4280E+00  9.9483E-04
    3.4819  2872.00  1.4279E+00  1.0009E-03
    3.4868  2868.00  1.4277E+00  1.0070E-03
    3.4916  2864.00  1.4275E+00  1.0131E-03
    3.4965  2860.00  1.4274E+00  1.0193E-03
    3.5014  2856.00  1.4272E+00  1.0256E-03
    3.5063  2852.00  1.4270E+00  1.0319E-03
    3.5112  2848.00  1.4269E+00  1.0383E-03
    3.5162  2844.00  1.4267E+00  1.0447E-03
    3.5211  2840.00  1.4265E+00  1.0512E-03
    3.5261  2836.00  1.4264E+00  1.0577E-03
    3.5311  2832.00  1.4262E+00  1.0643E-03
    3.5361  2828.00  1.4260E+00  1.0710E-03
    3.5411  2824.00  1.4258E+00  1.0777E-03
    3.5461  2820.00  1.4257E+00  1.0845E-03
    3.5511  2816.00  1.4255E+00  1.0913E-03
    3.5562  2812.00  1.4253E+00  1.0982E-03
    3.5613  2808.00  1.4251E+00  1.1052E-03
    3.5663  2804.00  1.4249E+00  1.1122E-03
    3.5714  2800.00  1.4248E+00  1.1193E-03
    3.5765  2796.00  1.4246E+00  1.1265E-03
    3.5817  2792.00  1.4244E+00  1.1337E-03
    3.5868  2788.00  1.4242E+00  1.1410E-03
    3.5920  2784.00  1.4240E+00  1.1484E-03
    3.5971  2780.00  1.4238E+00  1.1558E-03
    3.6023  2776.00  1.4237E+00  1.1633E-03
    3.6075  2772.00  1.4235E+00  1.1708E-03
    3.6127  2768.00  1.4233E+00  1.1785E-03
    3.6179  2764.00  1.4231E+00  1.1862E-03
    3.6232  2760.00  1.4229E+00  1.1940E-03
    3.6284  2756.00  1.4227E+00  1.2018E-03
    3.6337  2752.00  1.4225E+00  1.2097E-03
    3.6390  2748.00  1.4223E+00  1.2178E-03
    3.6443  2744.00  1.4221E+00  1.2258E-03
    3.6496  2740.00  1.4219E+00  1.2340E-03
    3.6550  2736.00  1.4217E+00  1.2422E-03
    3.6603  2732.00  1.4215E+00  1.2505E-03
    3.6657  2728.00  1.4213E+00  1.2589E-03
    3.6711  2724.00  1.4211E+00  1.2674E-03
    3.6765  2720.00  1.4209E+00  1.2760E-03
    3.6819  2716.00  1.4207E+00  1.2846E-03
    3.6873  2712.00  1.4205E+00  1.2933E-03
    3.6928  2708.00  1.4203E+00  1.3022E-03
    3.6982  2704.00  1.4201E+00  1.3111E-03
    3.7037  2700.00  1.4199E+00  1.3200E-03
    3.7092  2696.00  1.4196E+00  1.3291E-03
    3.7147  2692.00  1.4194E+00  1.3383E-03
    3.7202  2688.00  1.4192E+00  1.3475E-03
    3.7258  2684.00  1.4190E+00  1.3569E-03
    3.7313  2680.00  1.4188E+00  1.3663E-03
    3.7369  2676.00  1.4186E+00  1.3759E-03
    3.7425  2672.00  1.4183E+00  1.3855E-03
    3.7481  2668.00  1.4181E+00  1.3952E-03
    3.7538  2664.00  1.4179E+00  1.4051E-03
    3.7594  2660.00  1.4177E+00  1.4150E-03
    3.7651  2656.00  1.4174E+00  1.4250E-03
    3.7707  2652.00  1.4172E+00  1.4352E-03
    3.7764  2648.00  1.4170E+00  1.4454E-03
    3.7821  2644.00  1.4167E+00  1.4557E-03
    3.7879  2640.00  1.4165E+00  1.4662E-03
    3.7936  2636.00  1.4163E+00  1.4768E-03
    3.7994  2632.00  1.4160E+00  1.4874E-03
    3.8052  2628.00  1.4158E+00  1.4982E-03
    3.8110  2624.00  1.4155E+00  1.5091E-03
    3.8168  2620.00  1.4153E+00  1.5201E-03
    3.8226  2616.00  1.4151E+00  1.5313E-03
    3.8285  2612.00  1.4148E+00  1.5425E-03
    3.8344  2608.00  1.4146E+00  1.5539E-03
    3.8402  2604.00  1.4143E+00  1.5654E-03
    3.8462  2600.00  1.4141E+00  1.5770E-03
    3.8521  2596.00  1.4138E+00  1.5887E-03
    3.8580  2592.00  1.4135E+00  1.6006E-03
    3.8640  2588.00  1.4133E+00  1.6126E-03
    3.8700  2584.00  1.4130E+00  1.6247E-03
    3.8760  2580.00  1.4128E+00  1.6369E-03
    3.8820  2576.00  1.4125E+00  1.6493E-03
    3.8880  2572.00  1.4122E+00  1.6618E-03
    3.8941  2568.00  1.4120E+00  1.6745E-03
    3.9002  2564.00  1.4117E+00  1.6873E-03
    3.9062  2560.00  1.4114E+00  1.7002E-03
    3.9124  2556.00  1.4112E+00  1.7133E-03
    3.9185  2552.00  1.4109E+00  1.7266E-03
    3.9246  2548.00  1.4106E+00  1.7400E-03
    3.9308  2544.00  1.4103E+00  1.7535E-03
    3.9370  2540.00  1.4100E+00  1.7672E-03
    3.9432  2536.00  1.4098E+00  1.7810E-03
    3.9494  2532.00  1.4095E+00  1.7950E-03
    3.9557  2528.00  1.4092E+00  1.8092E-03
    3.9620  2524.00  1.4089E+00  1.8235E-03
    3.9683  2520.00  1.4086E+00  1.8380E-03
    3.9746  2516.00  1.4083E+00  1.8526E-03
    3.9809  2512.00  1.4080E+00  1.8675E-03
    3.9872  2508.00  1.4077E+00  1.8825E-03
    3.9936  2504.00  1.4074E+00  1.8977E-03
    4.0000  2500.00  1.4071E+00  1.9130E-03
    4.0064  2496.00  1.4068E+00  1.9285E-03
    4.0128  2492.00  1.4065E+00  1.9443E-03
    4.0193  2488.00  1.4062E+00  1.9602E-03
    4.0258  2484.00  1.4059E+00  1.9763E-03
    4.0323  2480.00  1.4056E+00  1.9925E-03
    4.0388  2476.00  1.4052E+00  2.0090E-03
    4.0453  2472.00  1.4049E+00  2.0257E-03
    4.0519  2468.00  1.4046E+00  2.0426E-03
    4.0584  2464.00  1.4043E+00  2.0597E-03
    4.0650  2460.00  1.4039E+00  2.0770E-03
    4.0717  2456.00  1.4036E+00  2.0945E-03
    4.0783  2452.00  1.4033E+00  2.1122E-03
    4.0850  2448.00  1.4029E+00  2.1302E-03
    4.0917  2444.00  1.4026E+00  2.1484E-03
    4.0984  2440.00  1.4023E+00  2.1668E-03
    4.1051  2436.00  1.4019E+00  2.1854E-03
    4.1118  2432.00  1.4016E+00  2.2042E-03
    4.1186  2428.00  1.4012E+00  2.2233E-03
    4.1254  2424.00  1.4009E+00  2.2427E-03
    4.1322  2420.00  1.4005E+00  2.2623E-03
    4.1391  2416.00  1.4001E+00  2.2821E-03
    4.1459  2412.00  1.3998E+00  2.3022E-03
    4.1528  2408.00  1.3994E+00  2.3226E-03
    4.1597  2404.00  1.3990E+00  2.3432E-03
    4.1667  2400.00  1.3987E+00  2.3641E-03
    4.1736  2396.00  1.3983E+00  2.3852E-03
    4.1806  2392.00  1.3979E+00  2.4067E-03
    4.1876  2388.00  1.3975E+00  2.4284E-03
    4.1946  2384.00  1.3971E+00  2.4504E-03
    4.2017  2380.00  1.3968E+00  2.4727E-03
    4.2088  2376.00  1.3964E+00  2.4953E-03
    4.2159  2372.00  1.3960E+00  2.5182E-03
    4.2230  2368.00  1.3956E+00  2.5414E-03
    4.2301  2364.00  1.3952E+00  2.5649E-03
    4.2373  2360.00  1.3948E+00  2.5888E-03
    4.2445  2356.00  1.3943E+00  2.6129E-03
    4.2517  2352.00  1.3939E+00  2.6374E-03
    4.2589  2348.00  1.3935E+00  2.6623E-03
    4.2662  2344.00  1.3931E+00  2.6875E-03
    4.2735  2340.00  1.3927E+00  2.7130E-03
    4.2808  2336.00  1.3922E+00  2.7389E-03
    4.2882  2332.00  1.3918E+00  2.7651E-03
    4.2955  2328.00  1.3914E+00  2.7917E-03
    4.3029  2324.00  1.3909E+00  2.8187E-03
    4.3103  2320.00  1.3905E+00  2.8461E-03
    4.3178  2316.00  1.3900E+00  2.8739E-03
    4.3253  2312.00  1.3896E+00  2.9021E-03
    4.3328  2308.00  1.3891E+00  2.9307E-03
    4.3403  2304.00  1.3887E+00  2.9597E-03
    4.3478  2300.00  1.3882E+00  2.9891E-03
    4.3554  2296.00  1.3877E+00  3.0189E-03
    4.3630  2292.00  1.3872E+00  3.0492E-03
    4.3706  2288.00  1.3868E+00  3.0800E-03
    4.3783  2284.00  1.3863E+00  3.1112E-03
    4.3860  2280.00  1.3858E+00  3.1428E-03
    4.3937  2276.00  1.3853E+00  3.1750E-03
    4.4014  2272.00  1.3848E+00  3.2076E-03
    4.4092  2268.00  1.3843E+00  3.2407E-03
    4.4170  2264.00  1.3838E+00  3.2743E-03
    4.4248  2260.00  1.3833E+00  3.3085E-03
    4.4326  2256.00  1.3827E+00  3.3431E-03
    4.4405  2252.00  1.3822E+00  3.3783E-03
    4.4484  2248.00  1.3817E+00  3.4141E-03
    4.4563  2244.00  1.3811E+00  3.4504E-03
    4.4643  2240.00  1.3806E+00  3.4873E-03
    4.4723  2236.00  1.3800E+00  3.5247E-03
    4.4803  2232.00  1.3795E+00  3.5628E-03
    4.4883  2228.00  1.3789E+00  3.6015E-03
    4.4964  2224.00  1.3784E+00  3.6408E-03
    4.5045  2220.00  1.3778E+00  3.6807E-03
    4.5126  2216.00  1.3772E+00  3.7213E-03
    4.5208  2212.00  1.3766E+00  3.7625E-03
    4.5290  2208.00  1.3760E+00  3.8044E-03
    4.5372  2204.00  1.3754E+00  3.8470E-03
