Kaolinite 0.2-3um KGa-1 estimated optical constants

R. N. Clark, 3/2002
deleted points = -1.23e34

       wavelength        n         k (cim^-1)

        .205100       1.559891     -1.23e34  
        .213100       1.559719     -1.23e34  
        .221100       1.559548     801.774048
        .229100       1.559376     835.023987
        .236100       1.559226     913.147034
        .242100       1.559098     978.217896
        .248100       1.558969    1031.474854
        .253600       1.558851     952.780212
        .258600       1.558744    1032.618164
        .263600       1.558637     998.034424
        .268600       1.558530     971.167725
        .273100       1.558434     934.964355
        .277100       1.558348     902.000244
        .281100       1.558262     869.417236
        .285100       1.558176     848.743103
        .289100       1.558091     820.923706
        .293100       1.558005     804.822754
        .297100       1.557919     772.716003
        .301100       1.557834     772.334961
        .305100       1.557748     769.381470
        .309100       1.557662     750.422424
        .313100       1.557576     733.845032
        .317100       1.557491     698.880249
        .321100       1.557405     703.834351
        .325100       1.557319     678.777771
        .329100       1.557233     650.863037
        .333100       1.557148     587.935913
        .337100       1.557062     536.250793
        .341100       1.556976     483.851135
        .345100       1.556891     425.211212
        .349100       1.556805     373.145020
        .353100       1.556719     320.245178
        .357100       1.556633     272.347168
        .360600       1.556558     231.665985
        .363600       1.556494     201.560028
        .366600       1.556430     174.478928
        .369600       1.556366     152.066193
        .372600       1.556301     136.227203
        .375600       1.556237     122.996300
        .378600       1.556173     111.920921
        .381100       1.556119     103.989517
        .383100       1.556076      97.900406
        .385100       1.556033      92.688065
        .387100       1.555991      86.731079
        .389100       1.555948      82.971359
        .391100       1.555905      78.753876
        .393100       1.555862      75.305420
        .395100       1.555819      72.180450
        .397100       1.555776      69.665833
        .399100       1.555733      66.821625
        .401100       1.555691      63.940788
        .403100       1.555648      61.847305
        .405100       1.555605      60.290924
        .407100       1.555562      57.947197
        .409100       1.555519      55.954414
        .411100       1.555476      54.260712
        .412800       1.555440      52.838600
        .415800       1.555376      50.806152
        .418800       1.555311      48.138947
        .421800       1.555247      46.021049
        .424800       1.555183      44.324287
        .427800       1.555118      42.590904
        .430800       1.555054      40.344833
        .433800       1.554990      38.837280
        .436800       1.554926      37.036766
        .439800       1.554861      35.474281
        .442800       1.554797      33.948418
        .445800       1.554733      32.868103
        .448800       1.554669      31.732861
        .451300       1.554615      30.622032
        .453300       1.554572      29.907925
        .455300       1.554529      29.633270
        .457300       1.554486      28.501080
        .459300       1.554443      28.354595
        .461300       1.554401      27.454338
        .463300       1.554358      26.920284
        .465300       1.554315      26.477783
        .467300       1.554272      25.672127
        .469300       1.554229      25.202164
        .471300       1.554186      24.494164
        .473300       1.554144      24.167629
        .475300       1.554101      23.847198
        .477300       1.554058      23.004921
        .479300       1.554015      22.428146
        .481300       1.553972      22.098557
        .483300       1.553929      21.939869
        .485300       1.553886      21.173885
        .487300       1.553843      20.731384
        .489300       1.553801      20.163761
        .491300       1.553758      19.892159
        .493300       1.553715      19.358105
        .495300       1.553672      18.933918
        .497300       1.553629      18.534142
        .499300       1.553586      18.241173
        .501300       1.553543      17.626251
        .503300       1.553501      17.597260
        .505300       1.553458      17.218845
        .507300       1.553415      16.449810
        .509300       1.553372      16.312481
        .511300       1.553329      15.866930
        .513300       1.553286      15.372549
        .515300       1.553244      15.110102
        .517300       1.553201      14.794247
        .519300       1.553158      14.572996
        .521300       1.553115      14.035892
        .523300       1.553072      13.837530
        .525300       1.553029      13.730721
        .527300       1.552986      13.483530
        .529300       1.552943      13.041029
        .531300       1.552901      12.799942
        .533300       1.552858      12.479513
        .535300       1.552815      12.186548
        .537300       1.552772      11.945461
        .539300       1.552729      11.783720
        .541300       1.552686      11.493805
        .543300       1.552644      11.307650
        .545300       1.552601      11.354952
        .547300       1.552558      10.953650
        .549300       1.552515      10.758339
        .551300       1.552472      10.715614
        .553300       1.552429      10.709511
        .555300       1.552386      10.300579
        .557300       1.552343      10.028976
        .559300       1.552301       9.736010
        .561300       1.552258       9.394217
        .563300       1.552215       9.696337
        .565300       1.552172       9.382010
        .567300       1.552129       9.484241
        .569300       1.552086       9.198906
        .571300       1.552044       9.044794
        .573300       1.552001       8.854061
        .575300       1.551958       8.793026
        .577300       1.551915       8.417664
        .579300       1.551872       8.149111
        .581300       1.551829       8.246767
        .583300       1.551786       8.368835
        .585300       1.551744       8.136904
        .587300       1.551701       7.790534
        .589300       1.551658       7.859198
        .591300       1.551615       7.612008
        .593300       1.551572       7.381602
        .595300       1.551529       7.404490
        .597300       1.551486       7.302258
        .599300       1.551443       7.132887
        .601100       1.551405       6.699541
        .602700       1.551371       6.801011
        .604300       1.551336       6.757524
        .605900       1.551302       6.693438
        .607500       1.551268       6.574421
        .609100       1.551234       6.521015
        .610700       1.551199       6.415730
        .612300       1.551165       6.351645
        .613900       1.551131       6.247886
        .615500       1.551096       6.162437
        .617100       1.551062       6.076989
        .618700       1.551028       6.110558
        .620300       1.550994       6.009851
        .621900       1.550959       5.794704
        .623500       1.550925       5.753506
        .625100       1.550891       5.828273
        .626700       1.550856       5.655850
        .628300       1.550822       5.566587
        .629900       1.550788       5.675687
        .631700       1.550749       5.450622
        .633700       1.550706       5.324738
        .635700       1.550663       5.297273
        .637700       1.550621       5.230897
        .639700       1.550578       5.080600
        .641700       1.550535       5.185884
        .643700       1.550492       5.016514
        .645700       1.550449       4.812048
        .647700       1.550406       5.055423
        .649700       1.550364       4.630470
        .651700       1.550321       4.812048
        .653700       1.550278       4.606056
        .655700       1.550235       4.705237
        .657700       1.550192       4.471781
        .659700       1.550149       4.465677
        .661700       1.550106       4.213909
        .663700       1.550063       4.375651
        .665700       1.550021       4.184918
        .667700       1.549978       3.975875
        .670200       1.549924       3.999526
        .673200       1.549860       4.033857
        .676200       1.549796       3.873642
        .679200       1.549731       3.672228
        .682200       1.549667       3.698930
        .685200       1.549603       3.643999
        .688200       1.549538       3.475391
        .691200       1.549474       3.293814
        .694200       1.549410       3.251089
        .697200       1.549346       3.240408
        .700200       1.549281       3.328146
        .702000       1.549243       3.174033
        .704000       1.549200       3.216757
        .706000       1.549157       2.995508
        .708000       1.549114       3.023736
        .710000       1.549071       2.953547
        .712000       1.549029       2.791805
        .714000       1.548986       2.803249
        .716000       1.548943       2.718563
        .718000       1.548900       2.541563
        .720000       1.548857       2.919977
        .722000       1.548814       2.707119
        .724000       1.548771       2.533552
        .726000       1.548728       2.493880
        .728000       1.548686       2.452300
        .730000       1.548643       2.410339
        .732000       1.548600       2.483580
        .734000       1.548557       2.575895
        .736000       1.548514       2.416442
        .738000       1.548471       2.447722
        .740000       1.548429       2.496550
        .742000       1.548386       2.339386
        .744000       1.548343       2.226472
        .746000       1.548300       2.359222
        .748000       1.548257       2.287507
        .750500       1.548203       2.141024
        .753500       1.548139       2.157045
        .756500       1.548075       2.146746
        .759500       1.548011       2.028110
        .762500       1.547946       2.059390
        .765500       1.547882       2.020481
        .768500       1.547818       2.199769
        .771500       1.547753       1.996448
        .774500       1.547689       1.983097
        .777500       1.547625       1.927021
        .781000       1.547550       1.931217
        .785000       1.547464       1.895360
        .789000       1.547379       1.955631
        .793000       1.547293       1.919010
        .797000       1.547207       2.012851
        .801500       1.547111       1.836614
        .806500       1.547004       1.787786
        .811500       1.546896       1.806097
        .816500       1.546789       1.560814
        .822000       1.546671       1.457437
        .828000       1.546543       1.465066
        .835000       1.546393       1.404032
        .843000       1.546221       1.355204
        .851000       1.546050       1.565010
        .859000       1.545879       1.537545
        .871000       1.545621       1.344523
        .883000       1.545364       1.641303
        .894000       1.545128       1.492532
        .904000       1.544914       1.555855
        .914000       1.544700       1.365885
        .924000       1.544486       1.222835
        .933000       1.544293       1.581413
        .941000       1.544121       1.582557
        .949000       1.543950       1.983097
        .957000       1.543779       2.080752
        .964000       1.543628       2.437041
        .970000       1.543500       1.980045
        .976000       1.543371       1.580269
        .982000       1.543243       1.103436
        .988000       1.543114       1.094281
        .994000       1.542986       1.165615
       1.000000       1.542857        .972880
       1.006000       1.542729       1.222454
       1.012000       1.542600        .955046
       1.018000       1.542471        .975264
       1.023500       1.542354       1.045454
       1.028500       1.542246       1.025617
       1.033500       1.542139        .955428
       1.038500       1.542032        .926436
       1.043500       1.541925        .944747
       1.048500       1.541818       1.034391
       1.053500       1.541711        .861206
       1.058500       1.541604       1.045454
       1.063500       1.541496        .938262
       1.068500       1.541389        .957335
       1.073500       1.541282        .996626
       1.078500       1.541175        .928916
       1.083500       1.541068        .919951
       1.088500       1.540961        .957335
       1.093500       1.540854        .873031
       1.098500       1.540746        .918426
       1.103500       1.540639        .966967
       1.108500       1.540532        .906982
       1.113500       1.540425       1.003111
       1.118500       1.540318        .926436
       1.123500       1.540211        .915183
       1.128500       1.540104        .857772
       1.133500       1.539996        .878753
       1.138500       1.539889        .924529
       1.143500       1.539782        .861969
       1.148500       1.539675        .947798
       1.153500       1.539568        .951232
       1.158500       1.539461        .995100
       1.163500       1.539353        .892486
       1.168500       1.539246        .897445
       1.173500       1.539139        .913085
       1.178500       1.539032        .815048
       1.183500       1.538925        .731698
       1.188500       1.538818        .994719
       1.193500       1.538711        .854721
       1.198500       1.538604        .932540
       1.203500       1.538496       1.137005
       1.208500       1.538389        .966967
       1.213500       1.538282       1.085698
       1.218500       1.538175       1.314387
       1.223500       1.538068       1.327739
       1.228500       1.537961       1.605827
       1.233500       1.537853       2.010562
       1.238500       1.537746       2.007511
       1.243500       1.537639       2.009799
       1.248500       1.537532       1.895360
       1.253500       1.537425       1.765661
       1.258500       1.537318       1.574165
       1.263500       1.537211       1.590187
       1.268500       1.537104       1.519997
       1.273500       1.536996       1.628333
       1.278500       1.536889       1.764135
       1.283500       1.536782       2.343201
       1.288500       1.536675       2.761287
       1.293500       1.536568       3.248800
       1.298500       1.536461       4.038435
       1.303500       1.536353       4.076582
       1.308500       1.536246       5.140871
       1.313500       1.536139       5.143160
       1.318500       1.536032       5.751980
       1.323500       1.535925       5.930506
       1.328500       1.535818       6.606463
       1.333500       1.535711       6.945969
       1.338500       1.535604       6.589680
       1.343500       1.535496       7.102369
       1.348500       1.535389       8.139956
       1.353500       1.535282      12.209435
       1.358500       1.535175      13.459116
       1.363500       1.535068      13.576607
       1.368500       1.534961      12.638203
       1.373500       1.534854      14.255617
       1.378500       1.534746      18.720295
       1.383500       1.534639      25.348644
       1.388500       1.534532      37.372452
       1.393500       1.534425      53.833466
       1.398500       1.534318      52.820290
       1.403500       1.534211      47.467567
       1.408500       1.534104      40.265488
       1.413500       1.533996      68.628250
       1.418500       1.533889      35.230141
       1.423500       1.533782      10.920080
       1.428500       1.533675       6.818559
       1.433500       1.533568       5.088229
       1.438500       1.533461       3.999526
       1.443500       1.533354       3.430760
       1.448500       1.533246       3.076378
       1.453500       1.533139       2.850551
       1.458500       1.533032       2.373718
       1.463500       1.532925       2.115084
       1.468500       1.532818       2.142550
       1.473500       1.532711       1.899937
       1.478500       1.532604       1.764517
       1.483500       1.532496       1.765661
       1.488500       1.532389       1.687842
       1.493500       1.532282       1.742773
       1.498500       1.532175       1.928929
       1.503500       1.532068       1.469644
       1.508500       1.531961       1.556618
       1.513500       1.531854       1.444086
       1.518500       1.531746       1.257930
       1.523500       1.531639       1.257930
       1.528500       1.531532       1.326213
       1.534000       1.531414       1.159035
       1.540000       1.531286       1.106488
       1.546000       1.531157       1.135861
       1.552000       1.531029       1.338419
       1.558000       1.530900       1.126324
       1.564000       1.530771       1.211773
       1.570500       1.530632       1.177059
       1.577500       1.530482       1.242290
       1.584500       1.530332       1.255451
       1.591500       1.530182       1.080549
       1.598500       1.530032       1.094281
       1.605500       1.529882       1.141201
       1.612500       1.529732        .978316
       1.619500       1.529582       1.141201
       1.626500       1.529432       1.180874
       1.633500       1.529282       1.302180
       1.640500       1.529132       1.252971
       1.647500       1.528982       1.216350
       1.654500       1.528832       1.223980
       1.661500       1.528682       1.231991
       1.668500       1.528532       1.565010
       1.676000       1.528371       1.524575
       1.684000       1.528200       1.504739
       1.692000       1.528028       1.438173
       1.700000       1.527857       1.671821
       1.708000       1.527686       1.571114
       1.716000       1.527514       1.774816
       1.724000       1.527343       1.886204
       1.732000       1.527171       2.251649
       1.740000       1.527000       2.442763
       1.748000       1.526829       2.562925
       1.756000       1.526657       2.364563
       1.764000       1.526486       2.784938
       1.772000       1.526314       3.072564
       1.780000       1.526143       3.882034
       1.788000       1.525971       4.337504
       1.796000       1.525800       4.789160
       1.805000       1.525607       5.310243
       1.815000       1.525393       5.709256
       1.825000       1.525179       6.139549
       1.835000       1.524964       5.265229
       1.845000       1.524750       5.834376
       1.855000       1.524536       4.624367
       1.865000       1.524321       4.593849
       1.875000       1.524107       5.431548
       1.885000       1.523893       6.832292
       1.895000       1.523679       8.170473
       1.905000       1.523464       9.488819
       1.915000       1.523250      11.394625
       1.925000       1.523036      11.441925
       1.935000       1.522821      11.396151
       1.945000       1.522607      12.108728
       1.955000       1.522393      11.371737
       1.965000       1.522179      11.156590
       1.975000       1.521964      10.756813
       1.985000       1.521750      11.386995
       1.995000       1.521536      11.420565
       2.005000       1.521321      11.917995
